# == Filter Data - Lambda 9 Spectrophotometer ==
# Kitt Peak National Observatory - NOAO
# ------------------------------------------------
# Filter: K1041 .1NM/15NMPERMIN/0.5S   400-550NM
# Date: 08/27/04   Time: 13:57:12  Operator: HS
# cwl=  4819.66A  fwhm= 762.13A  Tmax= 89.38% at  4998.00A
# Tcutoff=  2.00 %  Slitsize =  1 A
# fwhm spans 4438.60A to 5200.73A
# 90%  spans 4513.39A to 5101.11A
# bw90 is  0.771; Tmin90/Tmax is  0.716
# No data smoothing
# 
# Npts=  751     Disp=  2.00A/Interval
4000.0 -0.00025
4002.0 -0.0005
4004.0 0.0009
4006.0 0.0004
4008.0 0.0004
4010.0 -0.0006
4012.0 0.0001
4014.0 0.00055
4016.0 -0.00015
4018.0 0.0004
4020.0 -0.00025
4022.0 0.00115
4024.0 0.00075
4026.0 0.001
4028.0 0.00055
4030.0 0.00015
4032.0 0.00125
4034.0 -0.00035
4036.0 0.00045
4038.0 0.00085
4040.0 0.0017
4042.0 0.0009
4044.0 0.0011
4046.0 0.00055
4048.0 0.00035
4050.0 0.00115
4052.0 -0.0006
4054.0 -0.00085
4056.0 0.0009
4058.0 0.00075
4060.0 0.00015
4062.0 -0.00055
4064.0 -0.00095
4066.0 -0.00055
4068.0 0.0009
4070.0 0.0031
4072.0 -0.0009
4074.0 0.00095
4076.0 0.0007
4078.0 -0.00015
4080.0 0.00215
4082.0 -0.0003
4084.0 -0.00055
4086.0 0.00015
4088.0 0.0002
4090.0 0.0
4092.0 0.00015
4094.0 -5e-05
4096.0 0.0009
4098.0 0.00035
4100.0 -0.00045
4102.0 0.0001
4104.0 0.0009
4106.0 0.0009
4108.0 0.0007
4110.0 0.00055
4112.0 0.0013
4114.0 -0.0005
4116.0 -0.0001
4118.0 -0.0003
4120.0 0.00125
4122.0 0.00055
4124.0 0.0001
4126.0 -0.00035
4128.0 0.00055
4130.0 0.0015
4132.0 0.0008
4134.0 -0.00125
4136.0 -0.00025
4138.0 0.00075
4140.0 0.00025
4142.0 0.0005
4144.0 -5e-05
4146.0 0.0006
4148.0 -0.00015
4150.0 0.0006
4152.0 -0.00055
4154.0 5e-05
4156.0 -0.0002
4158.0 -5e-05
4160.0 0.00165
4162.0 0.00095
4164.0 -0.00025
4166.0 0.0004
4168.0 0.0008
4170.0 -5e-05
4172.0 -0.0004
4174.0 0.0001
4176.0 5e-05
4178.0 0.00165
4180.0 -0.0009
4182.0 0.0011
4184.0 0.0021
4186.0 0.0002
4188.0 0.0006
4190.0 0.0012
4192.0 0.00225
4194.0 5e-05
4196.0 -0.00075
4198.0 0.0001
4200.0 0.00105
4202.0 0.00125
4204.0 0.0014
4206.0 0.0004
4208.0 0.0001
4210.0 0.00125
4212.0 0.0009
4214.0 0.0013
4216.0 0.00075
4218.0 5e-05
4220.0 0.00065
4222.0 0.0009
4224.0 -0.0001
4226.0 5e-05
4228.0 -0.0009
4230.0 -0.0003
4232.0 -0.00045
4234.0 -0.00015
4236.0 -5e-05
4238.0 0.0001
4240.0 0.0006
4242.0 0.0007
4244.0 -5e-05
4246.0 0.0009
4248.0 0.00175
4250.0 0.0005
4252.0 0.00055
4254.0 0.0013
4256.0 0.00025
4258.0 0.00105
4260.0 0.00105
4262.0 0.0012
4264.0 0.00135
4266.0 0.00025
4268.0 0.0002
4270.0 0.00245
4272.0 0.0011
4274.0 0.00115
4276.0 0.00255
4278.0 0.0024
4280.0 0.00085
4282.0 0.0016
4284.0 0.00105
4286.0 0.00235
4288.0 0.00165
4290.0 0.00075
4292.0 0.00295
4294.0 0.00365
4296.0 0.00185
4298.0 0.00215
4300.0 0.00385
4302.0 0.0018
4304.0 0.0036
4306.0 0.00225
4308.0 0.00435
4310.0 0.0044
4312.0 0.0036
4314.0 0.0052
4316.0 0.00545
4318.0 0.007
4320.0 0.00725
4322.0 0.00745
4324.0 0.0101
4326.0 0.0119
4328.0 0.0142
4330.0 0.018
4332.0 0.0207
4334.0 0.02405
4336.0 0.02905
4338.0 0.03965
4340.0 0.04825
4342.0 0.06025
4344.0 0.0735
4346.0 0.09175
4348.0 0.1141
4350.0 0.1408
4352.0 0.177
4354.0 0.20765
4356.0 0.251
4358.0 0.29305
4360.0 0.33205
4362.0 0.36315
4364.0 0.4012
4366.0 0.4281
4368.0 0.4491
4370.0 0.47255
4372.0 0.4912
4374.0 0.50755
4376.0 0.53535
4378.0 0.5455
4380.0 0.5568
4382.0 0.5787
4384.0 0.57195
4386.0 0.5727
4388.0 0.5769
4390.0 0.57885
4392.0 0.56435
4394.0 0.5601
4396.0 0.5377
4398.0 0.5183
4400.0 0.5008
4402.0 0.48095
4404.0 0.46895
4406.0 0.45975
4408.0 0.44385
4410.0 0.42655
4412.0 0.4141
4414.0 0.40995
4416.0 0.4046
4418.0 0.40105
4420.0 0.39595
4422.0 0.3866
4424.0 0.3825
4426.0 0.3928
4428.0 0.3998
4430.0 0.40825
4432.0 0.41565
4434.0 0.4248
4436.0 0.4353
4438.0 0.4414
4440.0 0.4597
4442.0 0.48075
4444.0 0.4884
4446.0 0.5065
4448.0 0.52605
4450.0 0.54525
4452.0 0.56325
4454.0 0.58185
4456.0 0.60775
4458.0 0.6251
4460.0 0.64585
4462.0 0.65485
4464.0 0.6915
4466.0 0.70025
4468.0 0.70165
4470.0 0.7321
4472.0 0.73605
4474.0 0.75435
4476.0 0.74975
4478.0 0.7756
4480.0 0.77075
4482.0 0.77055
4484.0 0.77525
4486.0 0.77535
4488.0 0.7885
4490.0 0.78495
4492.0 0.7913
4494.0 0.7895
4496.0 0.7888
4498.0 0.8022
4500.0 0.7906
4502.0 0.7953
4504.0 0.79425
4506.0 0.7854
4508.0 0.7881
4510.0 0.7989
4512.0 0.79505
4514.0 0.8085
4516.0 0.7963
4518.0 0.80765
4520.0 0.7936
4522.0 0.78955
4524.0 0.8005
4526.0 0.79445
4528.0 0.80475
4530.0 0.8031
4532.0 0.79915
4534.0 0.80095
4536.0 0.79855
4538.0 0.7909
4540.0 0.78525
4542.0 0.7917
4544.0 0.7862
4546.0 0.78175
4548.0 0.78265
4550.0 0.77205
4552.0 0.77895
4554.0 0.77555
4556.0 0.7768
4558.0 0.77215
4560.0 0.77895
4562.0 0.77375
4564.0 0.77475
4566.0 0.7836
4568.0 0.7744
4570.0 0.7715
4572.0 0.777
4574.0 0.77175
4576.0 0.77405
4578.0 0.76915
4580.0 0.76995
4582.0 0.77435
4584.0 0.7792
4586.0 0.77875
4588.0 0.787
4590.0 0.7788
4592.0 0.77665
4594.0 0.78315
4596.0 0.7784
4598.0 0.78585
4600.0 0.7904
4602.0 0.786
4604.0 0.78635
4606.0 0.77865
4608.0 0.78855
4610.0 0.7933
4612.0 0.7893
4614.0 0.8007
4616.0 0.801
4618.0 0.7967
4620.0 0.7896
4622.0 0.79505
4624.0 0.7989
4626.0 0.7962
4628.0 0.79705
4630.0 0.8068
4632.0 0.8029
4634.0 0.80295
4636.0 0.81
4638.0 0.80905
4640.0 0.8128
4642.0 0.8142
4644.0 0.81465
4646.0 0.8199
4648.0 0.81865
4650.0 0.8233
4652.0 0.8274
4654.0 0.8189
4656.0 0.8222
4658.0 0.82445
4660.0 0.8292
4662.0 0.83135
4664.0 0.82105
4666.0 0.8287
4668.0 0.81755
4670.0 0.8223
4672.0 0.83335
4674.0 0.8292
4676.0 0.83225
4678.0 0.828
4680.0 0.82585
4682.0 0.82095
4684.0 0.83175
4686.0 0.8211
4688.0 0.82295
4690.0 0.8236
4692.0 0.8181
4694.0 0.82635
4696.0 0.8274
4698.0 0.83345
4700.0 0.8234
4702.0 0.8249
4704.0 0.82215
4706.0 0.8309
4708.0 0.8264
4710.0 0.8345
4712.0 0.8338
4714.0 0.84285
4716.0 0.8434
4718.0 0.84305
4720.0 0.84035
4722.0 0.84675
4724.0 0.85575
4726.0 0.85535
4728.0 0.84585
4730.0 0.8554
4732.0 0.85255
4734.0 0.8516
4736.0 0.8637
4738.0 0.8597
4740.0 0.85685
4742.0 0.85095
4744.0 0.85975
4746.0 0.85435
4748.0 0.8575
4750.0 0.83115
4752.0 0.83705
4754.0 0.83495
4756.0 0.8355
4758.0 0.82205
4760.0 0.813
4762.0 0.814
4764.0 0.80235
4766.0 0.8089
4768.0 0.79545
4770.0 0.7791
4772.0 0.7665
4774.0 0.77115
4776.0 0.7593
4778.0 0.76485
4780.0 0.744
4782.0 0.74705
4784.0 0.7335
4786.0 0.73395
4788.0 0.7195
4790.0 0.72415
4792.0 0.72955
4794.0 0.7037
4796.0 0.7048
4798.0 0.7055
4800.0 0.7068
4802.0 0.7012
4804.0 0.7132
4806.0 0.70785
4808.0 0.69895
4810.0 0.69865
4812.0 0.69495
4814.0 0.7031
4816.0 0.6982
4818.0 0.69955
4820.0 0.7089
4822.0 0.69715
4824.0 0.70775
4826.0 0.7189
4828.0 0.7112
4830.0 0.7098
4832.0 0.71485
4834.0 0.7268
4836.0 0.72495
4838.0 0.73535
4840.0 0.7425
4842.0 0.72885
4844.0 0.73695
4846.0 0.74445
4848.0 0.7378
4850.0 0.73805
4852.0 0.736
4854.0 0.7404
4856.0 0.7402
4858.0 0.73265
4860.0 0.73115
4862.0 0.7275
4864.0 0.73575
4866.0 0.7298
4868.0 0.7256
4870.0 0.7311
4872.0 0.7257
4874.0 0.71965
4876.0 0.71205
4878.0 0.7024
4880.0 0.70145
4882.0 0.69585
4884.0 0.70505
4886.0 0.6868
4888.0 0.6791
4890.0 0.66715
4892.0 0.6647
4894.0 0.6691
4896.0 0.66365
4898.0 0.6566
4900.0 0.6557
4902.0 0.65335
4904.0 0.64485
4906.0 0.64805
4908.0 0.64755
4910.0 0.655
4912.0 0.64885
4914.0 0.65025
4916.0 0.6432
4918.0 0.643
4920.0 0.64
4922.0 0.6533
4924.0 0.6487
4926.0 0.6636
4928.0 0.6568
4930.0 0.6672
4932.0 0.6763
4934.0 0.6759
4936.0 0.68765
4938.0 0.6936
4940.0 0.69485
4942.0 0.7021
4944.0 0.7168
4946.0 0.71745
4948.0 0.73115
4950.0 0.73795
4952.0 0.7482
4954.0 0.76755
4956.0 0.77215
4958.0 0.7845
4960.0 0.79095
4962.0 0.7935
4964.0 0.80455
4966.0 0.81815
4968.0 0.82965
4970.0 0.8353
4972.0 0.83435
4974.0 0.84545
4976.0 0.8544
4978.0 0.8667
4980.0 0.86405
4982.0 0.8743
4984.0 0.8765
4986.0 0.87915
4988.0 0.8779
4990.0 0.8837
4992.0 0.8847
4994.0 0.8879
4996.0 0.8909
4998.0 0.89375
5000.0 0.88415
5002.0 0.88655
5004.0 0.88135
5006.0 0.8786
5008.0 0.87935
5010.0 0.88085
5012.0 0.8774
5014.0 0.874
5016.0 0.8721
5018.0 0.87285
5020.0 0.8733
5022.0 0.87055
5024.0 0.87155
5026.0 0.8676
5028.0 0.86645
5030.0 0.86155
5032.0 0.866
5034.0 0.8671
5036.0 0.8667
5038.0 0.86555
5040.0 0.86425
5042.0 0.8633
5044.0 0.86815
5046.0 0.8655
5048.0 0.871
5050.0 0.86865
5052.0 0.87985
5054.0 0.8791
5056.0 0.877
5058.0 0.8786
5060.0 0.87865
5062.0 0.8828
5064.0 0.8755
5066.0 0.8851
5068.0 0.87975
5070.0 0.88045
5072.0 0.8795
5074.0 0.87905
5076.0 0.87555
5078.0 0.8693
5080.0 0.86775
5082.0 0.8647
5084.0 0.85925
5086.0 0.85295
5088.0 0.84735
5090.0 0.84445
5092.0 0.83535
5094.0 0.82645
5096.0 0.83235
5098.0 0.8148
5100.0 0.8113
5102.0 0.7988
5104.0 0.7948
5106.0 0.7781
5108.0 0.7683
5110.0 0.76905
5112.0 0.75815
5114.0 0.74655
5116.0 0.7448
5118.0 0.73605
5120.0 0.7349
5122.0 0.72785
5124.0 0.7236
5126.0 0.7205
5128.0 0.71035
5130.0 0.70555
5132.0 0.7016
5134.0 0.6927
5136.0 0.68695
5138.0 0.68555
5140.0 0.6801
5142.0 0.67565
5144.0 0.67655
5146.0 0.67685
5148.0 0.6709
5150.0 0.66875
5152.0 0.6626
5154.0 0.65705
5156.0 0.65205
5158.0 0.64245
5160.0 0.64485
5162.0 0.6409
5164.0 0.63655
5166.0 0.62785
5168.0 0.61895
5170.0 0.6149
5172.0 0.6071
5174.0 0.60265
5176.0 0.58725
5178.0 0.58455
5180.0 0.5718
5182.0 0.56025
5184.0 0.55495
5186.0 0.5362
5188.0 0.52835
5190.0 0.5149
5192.0 0.50585
5194.0 0.4931
5196.0 0.47815
5198.0 0.47205
5200.0 0.4517
5202.0 0.4384
5204.0 0.426
5206.0 0.41185
5208.0 0.3915
5210.0 0.3814
5212.0 0.3667
5214.0 0.3508
5216.0 0.33195
5218.0 0.32
5220.0 0.3003
5222.0 0.28235
5224.0 0.26485
5226.0 0.2538
5228.0 0.23925
5230.0 0.2189
5232.0 0.2061
5234.0 0.18865
5236.0 0.1771
5238.0 0.16
5240.0 0.1488
5242.0 0.1354
5244.0 0.1212
5246.0 0.1129
5248.0 0.1021
5250.0 0.09145
5252.0 0.0822
5254.0 0.074
5256.0 0.06825
5258.0 0.06125
5260.0 0.0561
5262.0 0.05075
5264.0 0.046
5266.0 0.04055
5268.0 0.0372
5270.0 0.0331
5272.0 0.03185
5274.0 0.02675
5276.0 0.02565
5278.0 0.0226
5280.0 0.02075
5282.0 0.01985
5284.0 0.0173
5286.0 0.0162
5288.0 0.0138
5290.0 0.01385
5292.0 0.0126
5294.0 0.01115
5296.0 0.00995
5298.0 0.0097
5300.0 0.00835
5302.0 0.0085
5304.0 0.00805
5306.0 0.00685
5308.0 0.00685
5310.0 0.0059
5312.0 0.0071
5314.0 0.0044
5316.0 0.0044
5318.0 0.00505
5320.0 0.00515
5322.0 0.0052
5324.0 0.0038
5326.0 0.0032
5328.0 0.00215
5330.0 0.00315
5332.0 0.00355
5334.0 0.00325
5336.0 0.0031
5338.0 0.00285
5340.0 0.0023
5342.0 0.0021
5344.0 0.0032
5346.0 0.0032
5348.0 0.00195
5350.0 0.00185
5352.0 0.00245
5354.0 0.00215
5356.0 0.0024
5358.0 0.0013
5360.0 0.0012
5362.0 0.0018
5364.0 0.0014
5366.0 0.0015
5368.0 0.0015
5370.0 0.0016
5372.0 0.00085
5374.0 0.0013
5376.0 0.00145
5378.0 0.00135
5380.0 0.0011
5382.0 0.0018
5384.0 0.00245
5386.0 0.00165
5388.0 0.00115
5390.0 0.0008
5392.0 0.00085
5394.0 0.0008
5396.0 0.00125
5398.0 0.0017
5400.0 0.0017
5402.0 0.0008
5404.0 0.0003
5406.0 0.00085
5408.0 0.00055
5410.0 -5e-05
5412.0 0.00135
5414.0 0.00155
5416.0 0.0012
5418.0 0.0013
5420.0 5e-05
5422.0 0.00155
5424.0 0.00175
5426.0 0.00065
5428.0 0.00135
5430.0 0.0009
5432.0 0.00065
5434.0 0.0011
5436.0 0.0006
5438.0 0.00095
5440.0 0.0007
5442.0 0.00055
5444.0 0.00125
5446.0 0.0012
5448.0 0.00075
5450.0 0.00075
5452.0 -0.0001
5454.0 0.00045
5456.0 0.00065
5458.0 0.00085
5460.0 0.00075
5462.0 0.0003
5464.0 0.0005
5466.0 0.0012
5468.0 0.0004
5470.0 0.0002
5472.0 0.00025
5474.0 0.00025
5476.0 0.0007
5478.0 0.0015
5480.0 0.0007
5482.0 0.0
5484.0 0.0
5486.0 0.00035
5488.0 5e-05
5490.0 -0.0005
5492.0 0.0006
5494.0 0.0011
5496.0 -0.00015
5498.0 0.00075
5500.0 0.0015
