# == Filter Data - Lambda 9 Spectrophotometer ==
# Kitt Peak National Observatory - NOAO
# ------------------------------------------------
# Filter: K1043 .1NM/15NMPERMIN/0.5S   400-550NM
# Date: 08/27/04   Time: 13:57:17  Operator: HS
# cwl=  6975.13A  fwhm= 1048.78A  Tmax= 90.11% at  6698.00A
# Tcutoff=  2.00 %  Slitsize =  1 A
# fwhm spans 6450.74A to 7499.52A
# 90%  spans 6552.32A to 7442.27A
# bw90 is  0.849; Tmin90/Tmax is  0.870
# No data smoothing
# 
# Npts= 1001     Disp=  2.00A/Interval
6000.0 0.00025
6002.0 -0.0011
6004.0 -0.00135
6006.0 5e-05
6008.0 -0.0002
6010.0 0.0001
6012.0 -0.0001
6014.0 0.00085
6016.0 0.00115
6018.0 -0.0008
6020.0 0.00055
6022.0 0.00035
6024.0 -0.00065
6026.0 -0.00015
6028.0 0.0003
6030.0 0.00035
6032.0 0.00115
6034.0 0.0013
6036.0 0.0007
6038.0 0.00045
6040.0 0.00115
6042.0 0.0005
6044.0 0.0
6046.0 0.00015
6048.0 -0.0002
6050.0 0.00015
6052.0 -0.0008
6054.0 -0.00065
6056.0 0.0004
6058.0 -0.00025
6060.0 0.00015
6062.0 0.0006
6064.0 -0.00015
6066.0 -0.0004
6068.0 -0.00075
6070.0 0.00045
6072.0 0.0003
6074.0 -0.0005
6076.0 0.00025
6078.0 0.0001
6080.0 0.0009
6082.0 -0.0004
6084.0 0.0004
6086.0 0.0013
6088.0 0.00065
6090.0 -0.00105
6092.0 0.0001
6094.0 -0.00025
6096.0 -0.00035
6098.0 -0.0013
6100.0 0.0011
6102.0 -0.00035
6104.0 0.0009
6106.0 0.0
6108.0 -0.00015
6110.0 0.0001
6112.0 0.00055
6114.0 0.00025
6116.0 0.0001
6118.0 0.0004
6120.0 0.0016
6122.0 0.00155
6124.0 0.0
6126.0 0.00025
6128.0 0.00035
6130.0 0.0006
6132.0 -0.0003
6134.0 0.0006
6136.0 0.0012
6138.0 -0.0005
6140.0 5e-05
6142.0 -0.00035
6144.0 -0.0004
6146.0 0.0
6148.0 0.00045
6150.0 0.0003
6152.0 0.0003
6154.0 0.00105
6156.0 -0.0007
6158.0 -0.00035
6160.0 0.0004
6162.0 -5e-05
6164.0 -0.00025
6166.0 0.00035
6168.0 -0.00065
6170.0 0.0006
6172.0 -0.00055
6174.0 0.0
6176.0 -0.00055
6178.0 0.0011
6180.0 -0.00085
6182.0 -0.00085
6184.0 -0.00115
6186.0 -0.0001
6188.0 -0.00085
6190.0 0.0004
6192.0 -0.0001
6194.0 -0.0001
6196.0 0.0003
6198.0 -0.00045
6200.0 0.0009
6202.0 0.00085
6204.0 0.0009
6206.0 0.0008
6208.0 0.0014
6210.0 0.0006
6212.0 0.0005
6214.0 0.00065
6216.0 0.0007
6218.0 0.0004
6220.0 0.0005
6222.0 0.00055
6224.0 -5e-05
6226.0 0.00095
6228.0 0.00205
6230.0 0.001
6232.0 0.0009
6234.0 0.0019
6236.0 0.0009
6238.0 0.0019
6240.0 0.002
6242.0 0.00185
6244.0 0.00255
6246.0 0.0026
6248.0 0.0033
6250.0 0.00365
6252.0 0.00425
6254.0 0.00435
6256.0 0.0046
6258.0 0.0042
6260.0 0.00555
6262.0 0.00635
6264.0 0.0063
6266.0 0.0061
6268.0 0.0076
6270.0 0.00695
6272.0 0.00825
6274.0 0.0091
6276.0 0.011
6278.0 0.0134
6280.0 0.0145
6282.0 0.01635
6284.0 0.01755
6286.0 0.02015
6288.0 0.02135
6290.0 0.02405
6292.0 0.0303
6294.0 0.03185
6296.0 0.03525
6298.0 0.04305
6300.0 0.0447
6302.0 0.0521
6304.0 0.0565
6306.0 0.0642
6308.0 0.07365
6310.0 0.07545
6312.0 0.0867
6314.0 0.0939
6316.0 0.1061
6318.0 0.1161
6320.0 0.13165
6322.0 0.141
6324.0 0.15555
6326.0 0.16865
6328.0 0.1799
6330.0 0.1917
6332.0 0.20975
6334.0 0.22335
6336.0 0.2404
6338.0 0.25375
6340.0 0.2682
6342.0 0.29345
6344.0 0.2992
6346.0 0.3162
6348.0 0.32915
6350.0 0.33265
6352.0 0.34735
6354.0 0.3569
6356.0 0.3647
6358.0 0.3759
6360.0 0.38155
6362.0 0.3948
6364.0 0.3989
6366.0 0.40155
6368.0 0.412
6370.0 0.40975
6372.0 0.41365
6374.0 0.42005
6376.0 0.42235
6378.0 0.42005
6380.0 0.41475
6382.0 0.4196
6384.0 0.4296
6386.0 0.42015
6388.0 0.42785
6390.0 0.42025
6392.0 0.42965
6394.0 0.42085
6396.0 0.42295
6398.0 0.42875
6400.0 0.4305
6402.0 0.4196
6404.0 0.42145
6406.0 0.41405
6408.0 0.4197
6410.0 0.41565
6412.0 0.4167
6414.0 0.42045
6416.0 0.40855
6418.0 0.4135
6420.0 0.41515
6422.0 0.41965
6424.0 0.4188
6426.0 0.4233
6428.0 0.4242
6430.0 0.42595
6432.0 0.42055
6434.0 0.4262
6436.0 0.42885
6438.0 0.43505
6440.0 0.43445
6442.0 0.4381
6444.0 0.4451
6446.0 0.44795
6448.0 0.4533
6450.0 0.44605
6452.0 0.4582
6454.0 0.46575
6456.0 0.4656
6458.0 0.47525
6460.0 0.47675
6462.0 0.48455
6464.0 0.49345
6466.0 0.50365
6468.0 0.51075
6470.0 0.51185
6472.0 0.5204
6474.0 0.52635
6476.0 0.5374
6478.0 0.53855
6480.0 0.55405
6482.0 0.56595
6484.0 0.5637
6486.0 0.564
6488.0 0.5846
6490.0 0.6062
6492.0 0.59995
6494.0 0.6195
6496.0 0.61625
6498.0 0.63405
6500.0 0.6546
6502.0 0.65585
6504.0 0.665
6506.0 0.6616
6508.0 0.67505
6510.0 0.6933
6512.0 0.7022
6514.0 0.70505
6516.0 0.71835
6518.0 0.71595
6520.0 0.7269
6522.0 0.7348
6524.0 0.7432
6526.0 0.7496
6528.0 0.7657
6530.0 0.76265
6532.0 0.77915
6534.0 0.776
6536.0 0.7886
6538.0 0.7845
6540.0 0.786
6542.0 0.79045
6544.0 0.798
6546.0 0.8028
6548.0 0.80175
6550.0 0.79805
6552.0 0.80885
6554.0 0.8221
6556.0 0.825
6558.0 0.81765
6560.0 0.8078
6562.0 0.8144
6564.0 0.8303
6566.0 0.826
6568.0 0.82385
6570.0 0.8237
6572.0 0.8274
6574.0 0.8228
6576.0 0.83625
6578.0 0.81755
6580.0 0.8221
6582.0 0.82995
6584.0 0.8337
6586.0 0.82955
6588.0 0.81925
6590.0 0.8275
6592.0 0.82965
6594.0 0.8241
6596.0 0.8237
6598.0 0.8219
6600.0 0.83845
6602.0 0.8281
6604.0 0.822
6606.0 0.82025
6608.0 0.82875
6610.0 0.8304
6612.0 0.8417
6614.0 0.83365
6616.0 0.82795
6618.0 0.81955
6620.0 0.836
6622.0 0.8336
6624.0 0.83445
6626.0 0.84085
6628.0 0.83105
6630.0 0.82735
6632.0 0.8522
6634.0 0.8448
6636.0 0.8368
6638.0 0.8416
6640.0 0.84605
6642.0 0.84735
6644.0 0.8535
6646.0 0.86555
6648.0 0.85565
6650.0 0.84565
6652.0 0.8626
6654.0 0.86775
6656.0 0.8567
6658.0 0.8685
6660.0 0.8629
6662.0 0.8617
6664.0 0.8703
6666.0 0.8767
6668.0 0.8832
6670.0 0.8689
6672.0 0.87015
6674.0 0.8816
6676.0 0.86855
6678.0 0.886
6680.0 0.87655
6682.0 0.88775
6684.0 0.87355
6686.0 0.88425
6688.0 0.88875
6690.0 0.8985
6692.0 0.89185
6694.0 0.894
6696.0 0.88315
6698.0 0.90105
6700.0 0.88975
6702.0 0.87995
6704.0 0.8815
6706.0 0.8891
6708.0 0.8949
6710.0 0.89465
6712.0 0.89795
6714.0 0.8967
6716.0 0.88415
6718.0 0.88775
6720.0 0.88565
6722.0 0.89035
6724.0 0.8767
6726.0 0.885
6728.0 0.8683
6730.0 0.87525
6732.0 0.8805
6734.0 0.87815
6736.0 0.8842
6738.0 0.8838
6740.0 0.8802
6742.0 0.8799
6744.0 0.8767
6746.0 0.8645
6748.0 0.86385
6750.0 0.8831
6752.0 0.85725
6754.0 0.86555
6756.0 0.87575
6758.0 0.86095
6760.0 0.8588
6762.0 0.86885
6764.0 0.86745
6766.0 0.8685
6768.0 0.86035
6770.0 0.85645
6772.0 0.854
6774.0 0.86705
6776.0 0.85125
6778.0 0.8538
6780.0 0.84835
6782.0 0.85755
6784.0 0.8538
6786.0 0.86
6788.0 0.8526
6790.0 0.8522
6792.0 0.8312
6794.0 0.84555
6796.0 0.85295
6798.0 0.8468
6800.0 0.85265
6802.0 0.84745
6804.0 0.84135
6806.0 0.84795
6808.0 0.84985
6810.0 0.84465
6812.0 0.83215
6814.0 0.8225
6816.0 0.8366
6818.0 0.84215
6820.0 0.8256
6822.0 0.84255
6824.0 0.8418
6826.0 0.82525
6828.0 0.8304
6830.0 0.84445
6832.0 0.8336
6834.0 0.84315
6836.0 0.831
6838.0 0.8306
6840.0 0.8304
6842.0 0.83825
6844.0 0.82715
6846.0 0.8206
6848.0 0.818
6850.0 0.82865
6852.0 0.8255
6854.0 0.81435
6856.0 0.82215
6858.0 0.82325
6860.0 0.82815
6862.0 0.8188
6864.0 0.80915
6866.0 0.8148
6868.0 0.821
6870.0 0.81225
6872.0 0.8181
6874.0 0.80705
6876.0 0.82025
6878.0 0.8194
6880.0 0.8191
6882.0 0.7974
6884.0 0.79295
6886.0 0.80325
6888.0 0.811
6890.0 0.8021
6892.0 0.7963
6894.0 0.81965
6896.0 0.81455
6898.0 0.8036
6900.0 0.80605
6902.0 0.8016
6904.0 0.8015
6906.0 0.80405
6908.0 0.81515
6910.0 0.7979
6912.0 0.80165
6914.0 0.79555
6916.0 0.78895
6918.0 0.8045
6920.0 0.7911
6922.0 0.794
6924.0 0.81015
6926.0 0.80515
6928.0 0.8049
6930.0 0.7948
6932.0 0.80645
6934.0 0.80595
6936.0 0.7918
6938.0 0.7895
6940.0 0.80365
6942.0 0.7958
6944.0 0.80485
6946.0 0.798
6948.0 0.79765
6950.0 0.8022
6952.0 0.81075
6954.0 0.81485
6956.0 0.7836
6958.0 0.8099
6960.0 0.8052
6962.0 0.802
6964.0 0.8269
6966.0 0.8073
6968.0 0.8178
6970.0 0.8018
6972.0 0.8204
6974.0 0.81395
6976.0 0.8144
6978.0 0.80425
6980.0 0.80965
6982.0 0.79575
6984.0 0.80345
6986.0 0.81625
6988.0 0.82535
6990.0 0.83785
6992.0 0.81645
6994.0 0.81385
6996.0 0.81075
6998.0 0.82855
7000.0 0.83
7002.0 0.82595
7004.0 0.8165
7006.0 0.81935
7008.0 0.8325
7010.0 0.82695
7012.0 0.8352
7014.0 0.8193
7016.0 0.8336
7018.0 0.82805
7020.0 0.83465
7022.0 0.82945
7024.0 0.8301
7026.0 0.821
7028.0 0.8267
7030.0 0.8177
7032.0 0.84435
7034.0 0.83775
7036.0 0.8413
7038.0 0.8403
7040.0 0.8484
7042.0 0.8325
7044.0 0.84375
7046.0 0.8518
7048.0 0.8449
7050.0 0.82965
7052.0 0.85245
7054.0 0.8434
7056.0 0.8425
7058.0 0.8495
7060.0 0.8427
7062.0 0.86655
7064.0 0.8542
7066.0 0.85155
7068.0 0.8508
7070.0 0.84795
7072.0 0.84505
7074.0 0.8499
7076.0 0.8565
7078.0 0.84765
7080.0 0.84645
7082.0 0.8599
7084.0 0.85205
7086.0 0.8505
7088.0 0.8648
7090.0 0.847
7092.0 0.84145
7094.0 0.85325
7096.0 0.82965
7098.0 0.83745
7100.0 0.8345
7102.0 0.863
7104.0 0.8522
7106.0 0.82925
7108.0 0.8399
7110.0 0.84275
7112.0 0.84275
7114.0 0.8476
7116.0 0.8437
7118.0 0.84975
7120.0 0.8405
7122.0 0.82475
7124.0 0.8348
7126.0 0.84675
7128.0 0.82335
7130.0 0.83395
7132.0 0.8453
7134.0 0.8254
7136.0 0.8126
7138.0 0.84335
7140.0 0.8362
7142.0 0.8213
7144.0 0.8377
7146.0 0.81845
7148.0 0.8466
7150.0 0.8436
7152.0 0.82305
7154.0 0.82985
7156.0 0.8336
7158.0 0.8501
7160.0 0.8294
7162.0 0.83435
7164.0 0.8417
7166.0 0.82655
7168.0 0.83275
7170.0 0.82395
7172.0 0.8322
7174.0 0.82695
7176.0 0.8347
7178.0 0.8217
7180.0 0.82425
7182.0 0.8307
7184.0 0.8239
7186.0 0.8301
7188.0 0.8253
7190.0 0.8186
7192.0 0.83485
7194.0 0.8464
7196.0 0.8413
7198.0 0.8278
7200.0 0.8435
7202.0 0.8363
7204.0 0.83355
7206.0 0.84615
7208.0 0.8275
7210.0 0.8419
7212.0 0.8259
7214.0 0.82605
7216.0 0.8411
7218.0 0.8474
7220.0 0.80395
7222.0 0.8406
7224.0 0.8348
7226.0 0.83905
7228.0 0.8406
7230.0 0.851
7232.0 0.84745
7234.0 0.85065
7236.0 0.83475
7238.0 0.84415
7240.0 0.8505
7242.0 0.85855
7244.0 0.85085
7246.0 0.86975
7248.0 0.84465
7250.0 0.8458
7252.0 0.84505
7254.0 0.8326
7256.0 0.84735
7258.0 0.8697
7260.0 0.85125
7262.0 0.8605
7264.0 0.8416
7266.0 0.84485
7268.0 0.8349
7270.0 0.85625
7272.0 0.8731
7274.0 0.8487
7276.0 0.8678
7278.0 0.8816
7280.0 0.86
7282.0 0.85885
7284.0 0.8772
7286.0 0.86125
7288.0 0.8694
7290.0 0.8568
7292.0 0.86975
7294.0 0.8478
7296.0 0.847
7298.0 0.8541
7300.0 0.86415
7302.0 0.85095
7304.0 0.85745
7306.0 0.86355
7308.0 0.866
7310.0 0.8661
7312.0 0.8807
7314.0 0.86985
7316.0 0.87755
7318.0 0.8573
7320.0 0.86085
7322.0 0.8698
7324.0 0.87925
7326.0 0.88125
7328.0 0.86005
7330.0 0.8611
7332.0 0.8478
7334.0 0.88825
7336.0 0.8731
7338.0 0.8885
7340.0 0.8929
7342.0 0.8867
7344.0 0.86155
7346.0 0.86875
7348.0 0.8671
7350.0 0.8892
7352.0 0.86655
7354.0 0.8458
7356.0 0.8669
7358.0 0.87775
7360.0 0.86875
7362.0 0.8723
7364.0 0.84485
7366.0 0.8635
7368.0 0.88755
7370.0 0.8717
7372.0 0.87135
7374.0 0.8417
7376.0 0.86015
7378.0 0.86035
7380.0 0.8604
7382.0 0.8785
7384.0 0.87215
7386.0 0.8739
7388.0 0.8757
7390.0 0.85235
7392.0 0.8607
7394.0 0.8566
7396.0 0.8518
7398.0 0.84965
7400.0 0.8591
7402.0 0.85285
7404.0 0.8345
7406.0 0.8318
7408.0 0.848
7410.0 0.8455
7412.0 0.8263
7414.0 0.86575
7416.0 0.87085
7418.0 0.85245
7420.0 0.83205
7422.0 0.85015
7424.0 0.8336
7426.0 0.83435
7428.0 0.80975
7430.0 0.84315
7432.0 0.8315
7434.0 0.82045
7436.0 0.83465
7438.0 0.8229
7440.0 0.8255
7442.0 0.8143
7444.0 0.78905
7446.0 0.7925
7448.0 0.79845
7450.0 0.78075
7452.0 0.77915
7454.0 0.79875
7456.0 0.76535
7458.0 0.7656
7460.0 0.77265
7462.0 0.7583
7464.0 0.72195
7466.0 0.7371
7468.0 0.7359
7470.0 0.71465
7472.0 0.70185
7474.0 0.6828
7476.0 0.6822
7478.0 0.64265
7480.0 0.62035
7482.0 0.6165
7484.0 0.5875
7486.0 0.5627
7488.0 0.5663
7490.0 0.54485
7492.0 0.52285
7494.0 0.51665
7496.0 0.47045
7498.0 0.4738
7500.0 0.44315
7502.0 0.41355
7504.0 0.38075
7506.0 0.36795
7508.0 0.353
7510.0 0.3233
7512.0 0.3181
7514.0 0.2711
7516.0 0.2627
7518.0 0.24695
7520.0 0.2392
7522.0 0.21655
7524.0 0.20835
7526.0 0.19335
7528.0 0.1874
7530.0 0.16855
7532.0 0.15255
7534.0 0.15745
7536.0 0.14145
7538.0 0.12695
7540.0 0.1209
7542.0 0.1025
7544.0 0.1052
7546.0 0.09805
7548.0 0.0838
7550.0 0.08525
7552.0 0.06745
7554.0 0.0632
7556.0 0.0622
7558.0 0.05205
7560.0 0.05915
7562.0 0.04715
7564.0 0.04985
7566.0 0.04615
7568.0 0.0418
7570.0 0.04015
7572.0 0.04275
7574.0 0.0422
7576.0 0.02275
7578.0 0.03285
7580.0 0.02755
7582.0 0.034
7584.0 0.029
7586.0 0.02365
7588.0 0.01935
7590.0 0.01205
7592.0 0.0237
7594.0 0.01575
7596.0 0.0116
7598.0 0.018
7600.0 0.00745
7602.0 0.01845
7604.0 0.0137
7606.0 0.0113
7608.0 0.01035
7610.0 0.01125
7612.0 0.02195
7614.0 0.02045
7616.0 0.0106
7618.0 0.0216
7620.0 0.00735
7622.0 0.0033
7624.0 0.0081
7626.0 0.01685
7628.0 0.0018
7630.0 0.00875
7632.0 0.00805
7634.0 0.01
7636.0 0.0112
7638.0 0.014
7640.0 0.00875
7642.0 0.0065
7644.0 0.00895
7646.0 0.0023
7648.0 0.0119
7650.0 -0.00015
7652.0 0.0022
7654.0 0.0096
7656.0 0.00545
7658.0 0.01445
7660.0 0.00945
7662.0 -0.0001
7664.0 -0.00025
7666.0 0.00855
7668.0 0.00605
7670.0 0.0071
7672.0 0.005
7674.0 0.00065
7676.0 0.00565
7678.0 0.00585
7680.0 0.008
7682.0 0.00145
7684.0 0.00485
7686.0 0.00485
7688.0 0.01545
7690.0 0.00545
7692.0 0.0038
7694.0 0.0013
7696.0 0.00795
7698.0 0.001
7700.0 0.00135
7702.0 0.00545
7704.0 0.0076
7706.0 0.0027
7708.0 0.00015
7710.0 0.00945
7712.0 -0.0007
7714.0 0.0052
7716.0 0.0048
7718.0 0.00955
7720.0 0.00565
7722.0 -0.00035
7724.0 0.01435
7726.0 0.01025
7728.0 0.00655
7730.0 0.00025
7732.0 0.0128
7734.0 0.00815
7736.0 0.00045
7738.0 0.01395
7740.0 0.0044
7742.0 0.00805
7744.0 0.003
7746.0 0.01395
7748.0 0.00385
7750.0 0.0037
7752.0 0.0103
7754.0 0.01125
7756.0 0.0112
7758.0 0.00345
7760.0 0.00215
7762.0 0.00365
7764.0 0.0019
7766.0 0.0021
7768.0 0.0131
7770.0 0.0074
7772.0 0.00685
7774.0 0.01455
7776.0 0.0013
7778.0 0.00655
7780.0 -0.00085
7782.0 0.01175
7784.0 0.00535
7786.0 0.00705
7788.0 -0.00135
7790.0 0.00245
7792.0 0.01195
7794.0 0.01625
7796.0 0.0016
7798.0 0.0214
7800.0 0.00405
7802.0 0.00045
7804.0 0.00565
7806.0 0.0052
7808.0 0.00025
7810.0 0.00275
7812.0 0.00775
7814.0 0.0045
7816.0 0.0
7818.0 0.00745
7820.0 0.00405
7822.0 0.01335
7824.0 0.00095
7826.0 0.00155
7828.0 0.01205
7830.0 -5e-05
7832.0 -0.0014
7834.0 0.0112
7836.0 0.00095
7838.0 0.0027
7840.0 0.0265
7842.0 0.0018
7844.0 0.0056
7846.0 0.0025
7848.0 0.0081
7850.0 0.00625
7852.0 0.0131
7854.0 0.00735
7856.0 0.0091
7858.0 0.0031
7860.0 0.0049
7862.0 0.00105
7864.0 0.01155
7866.0 0.01055
7868.0 0.0078
7870.0 0.01265
7872.0 0.01295
7874.0 0.00205
7876.0 0.0089
7878.0 0.00105
7880.0 0.0033
7882.0 0.01225
7884.0 0.01165
7886.0 0.01315
7888.0 0.0079
7890.0 0.00715
7892.0 0.008
7894.0 0.0072
7896.0 0.00575
7898.0 0.02015
7900.0 0.00945
7902.0 0.01165
7904.0 0.0086
7906.0 0.01665
7908.0 0.01705
7910.0 0.0097
7912.0 0.0042
7914.0 0.01665
7916.0 -0.00035
7918.0 0.00355
7920.0 0.01095
7922.0 0.02605
7924.0 0.0008
7926.0 0.0104
7928.0 0.00535
7930.0 0.00795
7932.0 0.01065
7934.0 0.0118
7936.0 0.00805
7938.0 0.00225
7940.0 0.0125
7942.0 0.0103
7944.0 0.0058
7946.0 0.01435
7948.0 0.00995
7950.0 0.00375
7952.0 0.00295
7954.0 0.0029
7956.0 0.00735
7958.0 -5e-05
7960.0 0.00265
7962.0 0.0181
7964.0 0.0001
7966.0 0.0053
7968.0 0.01185
7970.0 0.01955
7972.0 -0.0003
7974.0 0.01825
7976.0 0.0038
7978.0 0.00675
7980.0 0.009
7982.0 0.00825
7984.0 0.0072
7986.0 0.0032
7988.0 0.01085
7990.0 0.0097
7992.0 0.02175
7994.0 0.0116
7996.0 0.0114
7998.0 0.01045
8000.0 0.0059
