# == Filter Data - Lambda 9 Spectrophotometer ==
# Kitt Peak National Observatory - NOAO
# ------------------------------------------------
# Filter: SDSS G #136 P4 .5/60/0.5 22.9C
# Date: 03/22/02   Time: 10:58:06  Operator: JDV
# cwl=  4750.58A  fwhm= 1395.73A  Tmax= 91.16% at  5005.00A
# Tcutoff=  2.00 %  Slitsize =  5 A
# fwhm spans 4052.72A to 5448.45A
# 90%  spans 4477.71A to 5398.17A
# bw90 is  0.659; Tmin90/Tmax is  0.900
# No data smoothing
# 
# Npts=  411     Disp=  5.00A/Interval
3700.0 -5e-05
3705.0 0.0
3710.0 0.0
3715.0 0.0
3720.0 -5e-05
3725.0 0.0
3730.0 0.0
3735.0 0.0
3740.0 -5e-05
3745.0 0.0
3750.0 -5e-05
3755.0 0.0
3760.0 -5e-05
3765.0 0.0
3770.0 0.0
3775.0 0.0
3780.0 0.0
3785.0 5e-05
3790.0 0.00025
3795.0 0.0005
3800.0 0.0008
3805.0 0.00135
3810.0 0.00205
3815.0 0.00315
3820.0 0.0047
3825.0 0.00675
3830.0 0.00935
3835.0 0.01255
3840.0 0.01645
3845.0 0.02005
3850.0 0.02415
3855.0 0.02785
3860.0 0.0322
3865.0 0.03645
3870.0 0.04205
3875.0 0.04845
3880.0 0.05745
3885.0 0.06865
3890.0 0.0828
3895.0 0.1002
3900.0 0.1207
3905.0 0.1423
3910.0 0.16105
3915.0 0.174
3920.0 0.1795
3925.0 0.17915
3930.0 0.17535
3935.0 0.17045
3940.0 0.1671
3945.0 0.16605
3950.0 0.16775
3955.0 0.1721
3960.0 0.1823
3965.0 0.1959
3970.0 0.213
3975.0 0.23685
3980.0 0.2651
3985.0 0.2994
3990.0 0.3347
3995.0 0.37045
4000.0 0.401
4005.0 0.4249
4010.0 0.4406
4015.0 0.4465
4020.0 0.44615
4025.0 0.44125
4030.0 0.437
4035.0 0.43435
4040.0 0.43585
4045.0 0.4401
4050.0 0.44865
4055.0 0.46175
4060.0 0.47795
4065.0 0.4978
4070.0 0.5185
4075.0 0.539
4080.0 0.55895
4085.0 0.5749
4090.0 0.5851
4095.0 0.59145
4100.0 0.59305
4105.0 0.5926
4110.0 0.58795
4115.0 0.58385
4120.0 0.58135
4125.0 0.5776
4130.0 0.5788
4135.0 0.58265
4140.0 0.58875
4145.0 0.597
4150.0 0.6093
4155.0 0.6218
4160.0 0.6354
4165.0 0.6474
4170.0 0.66125
4175.0 0.67155
4180.0 0.6792
4185.0 0.68245
4190.0 0.6863
4195.0 0.68585
4200.0 0.68295
4205.0 0.6804
4210.0 0.67735
4215.0 0.67415
4220.0 0.67065
4225.0 0.66985
4230.0 0.67085
4235.0 0.6748
4240.0 0.67815
4245.0 0.6857
4250.0 0.6921
4255.0 0.69815
4260.0 0.70535
4265.0 0.71075
4270.0 0.71315
4275.0 0.71795
4280.0 0.7169
4285.0 0.717
4290.0 0.7146
4295.0 0.71105
4300.0 0.7068
4305.0 0.70235
4310.0 0.6965
4315.0 0.69355
4320.0 0.6929
4325.0 0.6902
4330.0 0.6922
4335.0 0.6932
4340.0 0.69835
4345.0 0.70415
4350.0 0.7107
4355.0 0.71835
4360.0 0.72765
4365.0 0.736
4370.0 0.74615
4375.0 0.7555
4380.0 0.76335
4385.0 0.7713
4390.0 0.77815
4395.0 0.7841
4400.0 0.78735
4405.0 0.78805
4410.0 0.79095
4415.0 0.79195
4420.0 0.7925
4425.0 0.792
4430.0 0.79305
4435.0 0.7921
4440.0 0.7927
4445.0 0.79665
4450.0 0.7972
4455.0 0.8014
4460.0 0.8022
4465.0 0.8076
4470.0 0.8131
4475.0 0.8172
4480.0 0.8231
4485.0 0.8279
4490.0 0.83345
4495.0 0.83905
4500.0 0.8423
4505.0 0.84525
4510.0 0.8456
4515.0 0.85085
4520.0 0.84985
4525.0 0.85085
4530.0 0.85125
4535.0 0.85095
4540.0 0.84955
4545.0 0.84905
4550.0 0.8499
4555.0 0.84925
4560.0 0.85065
4565.0 0.85085
4570.0 0.85125
4575.0 0.8525
4580.0 0.8542
4585.0 0.85615
4590.0 0.8584
4595.0 0.8601
4600.0 0.8628
4605.0 0.8656
4610.0 0.868
4615.0 0.8691
4620.0 0.86975
4625.0 0.8711
4630.0 0.8723
4635.0 0.87255
4640.0 0.8725
4645.0 0.8715
4650.0 0.8728
4655.0 0.87195
4660.0 0.8716
4665.0 0.87035
4670.0 0.86935
4675.0 0.86975
4680.0 0.87
4685.0 0.869
4690.0 0.8686
4695.0 0.86815
4700.0 0.868
4705.0 0.8693
4710.0 0.8694
4715.0 0.86975
4720.0 0.8693
4725.0 0.872
4730.0 0.8718
4735.0 0.8737
4740.0 0.874
4745.0 0.87615
4750.0 0.8771
4755.0 0.87765
4760.0 0.8791
4765.0 0.87985
4770.0 0.88215
4775.0 0.88195
4780.0 0.88525
4785.0 0.887
4790.0 0.8885
4795.0 0.8902
4800.0 0.8939
4805.0 0.8971
4810.0 0.8978
4815.0 0.8997
4820.0 0.9019
4825.0 0.90495
4830.0 0.90605
4835.0 0.90545
4840.0 0.90825
4845.0 0.9073
4850.0 0.9101
4855.0 0.9088
4860.0 0.9084
4865.0 0.90645
4870.0 0.90575
4875.0 0.9029
4880.0 0.902
4885.0 0.89855
4890.0 0.89605
4895.0 0.8939
4900.0 0.89175
4905.0 0.88865
4910.0 0.8877
4915.0 0.8869
4920.0 0.8853
4925.0 0.88385
4930.0 0.8832
4935.0 0.8852
4940.0 0.8856
4945.0 0.88685
4950.0 0.88945
4955.0 0.8914
4960.0 0.89335
4965.0 0.89705
4970.0 0.90165
4975.0 0.903
4980.0 0.906
4985.0 0.90825
4990.0 0.9104
4995.0 0.9107
5000.0 0.91135
5005.0 0.91155
5010.0 0.91015
5015.0 0.9074
5020.0 0.9032
5025.0 0.9014
5030.0 0.8957
5035.0 0.89035
5040.0 0.88475
5045.0 0.87895
5050.0 0.87305
5055.0 0.8674
5060.0 0.8623
5065.0 0.8566
5070.0 0.85215
5075.0 0.84865
5080.0 0.8454
5085.0 0.8429
5090.0 0.8433
5095.0 0.8432
5100.0 0.84325
5105.0 0.84575
5110.0 0.84825
5115.0 0.8529
5120.0 0.8563
5125.0 0.86165
5130.0 0.86655
5135.0 0.8713
5140.0 0.87685
5145.0 0.88205
5150.0 0.88565
5155.0 0.8907
5160.0 0.8923
5165.0 0.8929
5170.0 0.89435
5175.0 0.89095
5180.0 0.89135
5185.0 0.8905
5190.0 0.88615
5195.0 0.88385
5200.0 0.88065
5205.0 0.8787
5210.0 0.8753
5215.0 0.87285
5220.0 0.8716
5225.0 0.87145
5230.0 0.87295
5235.0 0.87305
5240.0 0.87565
5245.0 0.87765
5250.0 0.88275
5255.0 0.88535
5260.0 0.8912
5265.0 0.89425
5270.0 0.89635
5275.0 0.89715
5280.0 0.8971
5285.0 0.89615
5290.0 0.89405
5295.0 0.88815
5300.0 0.88305
5305.0 0.87645
5310.0 0.8671
5315.0 0.8584
5320.0 0.8511
5325.0 0.84395
5330.0 0.8391
5335.0 0.8329
5340.0 0.82995
5345.0 0.8268
5350.0 0.82845
5355.0 0.8278
5360.0 0.83055
5365.0 0.83275
5370.0 0.83565
5375.0 0.8355
5380.0 0.83565
5385.0 0.83315
5390.0 0.828
5395.0 0.82375
5400.0 0.81845
5405.0 0.8143
5410.0 0.81375
5415.0 0.8139
5420.0 0.81795
5425.0 0.8197
5430.0 0.81005
5435.0 0.76985
5440.0 0.68525
5445.0 0.5572
5450.0 0.4101
5455.0 0.27945
5460.0 0.1837
5465.0 0.11865
5470.0 0.0766
5475.0 0.0498
5480.0 0.0326
5485.0 0.02175
5490.0 0.0148
5495.0 0.01025
5500.0 0.00715
5505.0 0.0051
5510.0 0.00365
5515.0 0.0027
5520.0 0.002
5525.0 0.0015
5530.0 0.0011
5535.0 0.00085
5540.0 0.0006
5545.0 0.0005
5550.0 0.00035
5555.0 0.0003
5560.0 0.0002
5565.0 0.0002
5570.0 0.0002
5575.0 0.0001
5580.0 0.00015
5585.0 5e-05
5590.0 0.0
5595.0 0.0
5600.0 5e-05
5605.0 0.0
5610.0 0.0
5615.0 0.0
5620.0 -0.0004
5625.0 5e-05
5630.0 0.0
5635.0 0.0
5640.0 -5e-05
5645.0 0.0
5650.0 0.0
5655.0 0.0
5660.0 -5e-05
5665.0 0.0
5670.0 0.0
5675.0 0.0
5680.0 0.0
5685.0 0.0
5690.0 -5e-05
5695.0 -5e-05
5700.0 0.0
5705.0 0.0
5710.0 -5e-05
5715.0 0.0
5720.0 0.0
5725.0 -5e-05
5730.0 0.0
5735.0 0.0
5740.0 0.0
5745.0 0.0
5750.0 5e-05
