# == Filter Data - Lambda 9 Spectrophotometer ==
# Kitt Peak National Observatory - NOAO
# ------------------------------------------------
# Filter: K1001 .1NM/7.5NMPERMIN/1S  300-450NM
# Date: 07/13/04   Time: 15:47:39  Operator: hs
# cwl=  3582.67A  fwhm= 615.46A  Tmax= 76.31% at  3634.00A
# Tcutoff=  2.00 %  Slitsize = 10 A
# fwhm spans 3274.94A to 3890.40A
# 90%  spans 3474.99A to 3763.77A
# bw90 is  0.469; Tmin90/Tmax is  0.895
# No data smoothing
# 
# Npts=  751     Disp=  2.00A/Interval
3000.0 0.0007
3002.0 0.00045
3004.0 -0.00015
3006.0 0.00045
3008.0 0.00085
3010.0 -0.0001
3012.0 0.0002
3014.0 0.00055
3016.0 0.00105
3018.0 0.001
3020.0 0.00035
3022.0 0.00055
3024.0 0.0015
3026.0 0.0002
3028.0 0.0006
3030.0 0.00125
3032.0 0.0013
3034.0 0.00125
3036.0 0.0019
3038.0 0.00175
3040.0 0.0013
3042.0 0.00215
3044.0 0.00245
3046.0 0.00295
3048.0 0.00275
3050.0 0.00325
3052.0 0.004
3054.0 0.0032
3056.0 0.0041
3058.0 0.0049
3060.0 0.00625
3062.0 0.00705
3064.0 0.0068
3066.0 0.0071
3068.0 0.0069
3070.0 0.0076
3072.0 0.00975
3074.0 0.0095
3076.0 0.00935
3078.0 0.01245
3080.0 0.0122
3082.0 0.01365
3084.0 0.01505
3086.0 0.01565
3088.0 0.01665
3090.0 0.01835
3092.0 0.019
3094.0 0.02065
3096.0 0.0211
3098.0 0.02335
3100.0 0.0247
3102.0 0.02805
3104.0 0.02795
3106.0 0.0287
3108.0 0.03275
3110.0 0.0341
3112.0 0.0341
3114.0 0.0373
3116.0 0.0414
3118.0 0.04355
3120.0 0.0435
3122.0 0.04595
3124.0 0.05045
3126.0 0.0516
3128.0 0.05595
3130.0 0.0586
3132.0 0.0627
3134.0 0.06385
3136.0 0.06445
3138.0 0.06635
3140.0 0.071
3142.0 0.0762
3144.0 0.0808
3146.0 0.08095
3148.0 0.08415
3150.0 0.0907
3152.0 0.09445
3154.0 0.09695
3156.0 0.0978
3158.0 0.1029
3160.0 0.1062
3162.0 0.11105
3164.0 0.1169
3166.0 0.11905
3168.0 0.1207
3170.0 0.1287
3172.0 0.1328
3174.0 0.13545
3176.0 0.1377
3178.0 0.14265
3180.0 0.1518
3182.0 0.15705
3184.0 0.15955
3186.0 0.1598
3188.0 0.16565
3190.0 0.16965
3192.0 0.17235
3194.0 0.1831
3196.0 0.18885
3198.0 0.1914
3200.0 0.19555
3202.0 0.19685
3204.0 0.2008
3206.0 0.2127
3208.0 0.215
3210.0 0.21915
3212.0 0.2282
3214.0 0.2279
3216.0 0.23565
3218.0 0.2401
3220.0 0.2433
3222.0 0.24705
3224.0 0.25385
3226.0 0.25875
3228.0 0.2604
3230.0 0.26605
3232.0 0.2717
3234.0 0.2817
3236.0 0.2819
3238.0 0.28955
3240.0 0.2976
3242.0 0.30115
3244.0 0.30475
3246.0 0.30935
3248.0 0.31255
3250.0 0.32455
3252.0 0.32175
3254.0 0.3275
3256.0 0.3352
3258.0 0.34285
3260.0 0.3377
3262.0 0.34645
3264.0 0.352
3266.0 0.35885
3268.0 0.36325
3270.0 0.368
3272.0 0.37605
3274.0 0.37795
3276.0 0.38565
3278.0 0.39305
3280.0 0.3917
3282.0 0.3979
3284.0 0.40855
3286.0 0.40125
3288.0 0.41545
3290.0 0.4036
3292.0 0.42085
3294.0 0.42215
3296.0 0.42725
3298.0 0.4327
3300.0 0.4338
3302.0 0.4335
3304.0 0.44515
3306.0 0.44935
3308.0 0.4539
3310.0 0.45755
3312.0 0.4625
3314.0 0.46655
3316.0 0.47525
3318.0 0.47425
3320.0 0.47845
3322.0 0.4784
3324.0 0.4809
3326.0 0.4939
3328.0 0.49105
3330.0 0.4924
3332.0 0.49905
3334.0 0.5051
3336.0 0.50335
3338.0 0.51035
3340.0 0.5103
3342.0 0.5117
3344.0 0.5175
3346.0 0.51905
3348.0 0.5353
3350.0 0.5368
3352.0 0.5303
3354.0 0.5384
3356.0 0.5381
3358.0 0.5475
3360.0 0.55145
3362.0 0.5508
3364.0 0.5573
3366.0 0.555
3368.0 0.5608
3370.0 0.56305
3372.0 0.56465
3374.0 0.568
3376.0 0.57545
3378.0 0.5742
3380.0 0.5774
3382.0 0.5787
3384.0 0.5907
3386.0 0.58845
3388.0 0.5836
3390.0 0.5895
3392.0 0.5957
3394.0 0.5936
3396.0 0.60325
3398.0 0.60775
3400.0 0.6017
3402.0 0.6041
3404.0 0.60965
3406.0 0.61585
3408.0 0.62085
3410.0 0.6102
3412.0 0.62255
3414.0 0.61555
3416.0 0.62055
3418.0 0.63155
3420.0 0.628
3422.0 0.63385
3424.0 0.63395
3426.0 0.63045
3428.0 0.64105
3430.0 0.64365
3432.0 0.64065
3434.0 0.6412
3436.0 0.6465
3438.0 0.65355
3440.0 0.64765
3442.0 0.649
3444.0 0.65505
3446.0 0.66795
3448.0 0.6629
3450.0 0.6552
3452.0 0.6668
3454.0 0.665
3456.0 0.6729
3458.0 0.66485
3460.0 0.6652
3462.0 0.6719
3464.0 0.67495
3466.0 0.68345
3468.0 0.6782
3470.0 0.6826
3472.0 0.67955
3474.0 0.67955
3476.0 0.69415
3478.0 0.6827
3480.0 0.68435
3482.0 0.6902
3484.0 0.69135
3486.0 0.6871
3488.0 0.6994
3490.0 0.7059
3492.0 0.70165
3494.0 0.7014
3496.0 0.69895
3498.0 0.70145
3500.0 0.70235
3502.0 0.71015
3504.0 0.7062
3506.0 0.709
3508.0 0.7043
3510.0 0.71665
3512.0 0.7152
3514.0 0.71745
3516.0 0.7243
3518.0 0.7131
3520.0 0.71125
3522.0 0.71395
3524.0 0.71975
3526.0 0.73145
3528.0 0.71925
3530.0 0.72155
3532.0 0.72015
3534.0 0.7308
3536.0 0.7341
3538.0 0.7279
3540.0 0.71915
3542.0 0.73445
3544.0 0.7291
3546.0 0.7355
3548.0 0.73325
3550.0 0.73815
3552.0 0.7409
3554.0 0.7389
3556.0 0.73965
3558.0 0.7357
3560.0 0.74175
3562.0 0.73655
3564.0 0.73255
3566.0 0.7423
3568.0 0.7456
3570.0 0.739
3572.0 0.73745
3574.0 0.74285
3576.0 0.73785
3578.0 0.7459
3580.0 0.74125
3582.0 0.75305
3584.0 0.75205
3586.0 0.74025
3588.0 0.74225
3590.0 0.74815
3592.0 0.7621
3594.0 0.74665
3596.0 0.7466
3598.0 0.7481
3600.0 0.7548
3602.0 0.7472
3604.0 0.759
3606.0 0.7506
3608.0 0.74635
3610.0 0.7546
3612.0 0.75785
3614.0 0.7604
3616.0 0.7575
3618.0 0.7532
3620.0 0.7585
3622.0 0.7546
3624.0 0.75355
3626.0 0.75435
3628.0 0.7532
3630.0 0.75145
3632.0 0.75195
3634.0 0.7631
3636.0 0.7457
3638.0 0.74945
3640.0 0.75275
3642.0 0.76275
3644.0 0.75575
3646.0 0.75635
3648.0 0.7485
3650.0 0.7474
3652.0 0.7573
3654.0 0.763
3656.0 0.74145
3658.0 0.75155
3660.0 0.7519
3662.0 0.7613
3664.0 0.74985
3666.0 0.75905
3668.0 0.76105
3670.0 0.74695
3672.0 0.75615
3674.0 0.75125
3676.0 0.75765
3678.0 0.7464
3680.0 0.74995
3682.0 0.75855
3684.0 0.7503
3686.0 0.7425
3688.0 0.73805
3690.0 0.7495
3692.0 0.74505
3694.0 0.74205
3696.0 0.7521
3698.0 0.7397
3700.0 0.7373
3702.0 0.73325
3704.0 0.73665
3706.0 0.73775
3708.0 0.7391
3710.0 0.74325
3712.0 0.73195
3714.0 0.7258
3716.0 0.7351
3718.0 0.7315
3720.0 0.72575
3722.0 0.72825
3724.0 0.72845
3726.0 0.73515
3728.0 0.7352
3730.0 0.71845
3732.0 0.7197
3734.0 0.7204
3736.0 0.71635
3738.0 0.7178
3740.0 0.70625
3742.0 0.7023
3744.0 0.70175
3746.0 0.69455
3748.0 0.7036
3750.0 0.7006
3752.0 0.69335
3754.0 0.69535
3756.0 0.6856
3758.0 0.69265
3760.0 0.6875
3762.0 0.7009
3764.0 0.68495
3766.0 0.6776
3768.0 0.6652
3770.0 0.67455
3772.0 0.6737
3774.0 0.6725
3776.0 0.67335
3778.0 0.6664
3780.0 0.6613
3782.0 0.6471
3784.0 0.64325
3786.0 0.6447
3788.0 0.65255
3790.0 0.65065
3792.0 0.6469
3794.0 0.6301
3796.0 0.62725
3798.0 0.6239
3800.0 0.6257
3802.0 0.618
3804.0 0.619
3806.0 0.6145
3808.0 0.60905
3810.0 0.6052
3812.0 0.6072
3814.0 0.593
3816.0 0.5966
3818.0 0.58625
3820.0 0.58075
3822.0 0.57655
3824.0 0.56965
3826.0 0.57195
3828.0 0.5672
3830.0 0.55795
3832.0 0.5436
3834.0 0.54395
3836.0 0.54825
3838.0 0.5378
3840.0 0.53885
3842.0 0.531
3844.0 0.51985
3846.0 0.51585
3848.0 0.5099
3850.0 0.50815
3852.0 0.4959
3854.0 0.49775
3856.0 0.48895
3858.0 0.48465
3860.0 0.4748
3862.0 0.47135
3864.0 0.4611
3866.0 0.4581
3868.0 0.4532
3870.0 0.45285
3872.0 0.44255
3874.0 0.43895
3876.0 0.43065
3878.0 0.41965
3880.0 0.4136
3882.0 0.40995
3884.0 0.40375
3886.0 0.3963
3888.0 0.3894
3890.0 0.38295
3892.0 0.37595
3894.0 0.3729
3896.0 0.36625
3898.0 0.35685
3900.0 0.3479
3902.0 0.3445
3904.0 0.34095
3906.0 0.3303
3908.0 0.32105
3910.0 0.31485
3912.0 0.3136
3914.0 0.304
3916.0 0.295
3918.0 0.2941
3920.0 0.2827
3922.0 0.2794
3924.0 0.27525
3926.0 0.27215
3928.0 0.2624
3930.0 0.256
3932.0 0.24425
3934.0 0.24085
3936.0 0.2355
3938.0 0.22895
3940.0 0.2269
3942.0 0.22025
3944.0 0.2113
3946.0 0.20405
3948.0 0.2003
3950.0 0.19415
3952.0 0.19105
3954.0 0.1869
3956.0 0.18135
3958.0 0.175
3960.0 0.17035
3962.0 0.1608
3964.0 0.16075
3966.0 0.15225
3968.0 0.15035
3970.0 0.1474
3972.0 0.14145
3974.0 0.13515
3976.0 0.13175
3978.0 0.1274
3980.0 0.1211
3982.0 0.1162
3984.0 0.11475
3986.0 0.1099
3988.0 0.10585
3990.0 0.1006
3992.0 0.09695
3994.0 0.09265
3996.0 0.0892
3998.0 0.0865
4000.0 0.0844
4002.0 0.0776
4004.0 0.0773
4006.0 0.07215
4008.0 0.06885
4010.0 0.0684
4012.0 0.06465
4014.0 0.06155
4016.0 0.0589
4018.0 0.0582
4020.0 0.05375
4022.0 0.05185
4024.0 0.0487
4026.0 0.04605
4028.0 0.0431
4030.0 0.0428
4032.0 0.0399
4034.0 0.03935
4036.0 0.03735
4038.0 0.0354
4040.0 0.0339
4042.0 0.03125
4044.0 0.0298
4046.0 0.02905
4048.0 0.02705
4050.0 0.0255
4052.0 0.02505
4054.0 0.0234
4056.0 0.0226
4058.0 0.02115
4060.0 0.02015
4062.0 0.0183
4064.0 0.0175
4066.0 0.01735
4068.0 0.01585
4070.0 0.0151
4072.0 0.01385
4074.0 0.0136
4076.0 0.0123
4078.0 0.0127
4080.0 0.0112
4082.0 0.01005
4084.0 0.0099
4086.0 0.0096
4088.0 0.0089
4090.0 0.00795
4092.0 0.0079
4094.0 0.0072
4096.0 0.00705
4098.0 0.00635
4100.0 0.00525
4102.0 0.0057
4104.0 0.00565
4106.0 0.0045
4108.0 0.0048
4110.0 0.00425
4112.0 0.0039
4114.0 0.00345
4116.0 0.00345
4118.0 0.00335
4120.0 0.00325
4122.0 0.0029
4124.0 0.00285
4126.0 0.00265
4128.0 0.00255
4130.0 0.0022
4132.0 0.00215
4134.0 0.00195
4136.0 0.0018
4138.0 0.0017
4140.0 0.00165
4142.0 0.0015
4144.0 0.0014
4146.0 0.0011
4148.0 0.00135
4150.0 0.001
4152.0 0.00075
4154.0 0.0011
4156.0 0.0013
4158.0 0.0008
4160.0 0.00075
4162.0 0.0009
4164.0 0.00105
4166.0 0.00065
4168.0 0.0005
4170.0 0.00065
4172.0 0.0005
4174.0 0.00065
4176.0 0.00035
4178.0 0.00085
4180.0 0.00045
4182.0 0.0004
4184.0 0.0001
4186.0 0.0005
4188.0 0.00035
4190.0 0.00025
4192.0 5e-05
4194.0 0.00015
4196.0 0.0
4198.0 -0.00015
4200.0 -0.0005
4202.0 -0.00015
4204.0 -0.0004
4206.0 -5e-05
4208.0 0.0005
4210.0 0.00015
4212.0 0.00035
4214.0 0.0
4216.0 0.0
4218.0 -0.0002
4220.0 0.0004
4222.0 -0.0001
4224.0 -0.00035
4226.0 -5e-05
4228.0 -0.00065
4230.0 -0.00025
4232.0 0.0006
4234.0 -0.0002
4236.0 -5e-05
4238.0 0.0
4240.0 0.00035
4242.0 0.00055
4244.0 0.00075
4246.0 -0.0001
4248.0 0.00055
4250.0 0.0002
4252.0 -0.00025
4254.0 -0.0002
4256.0 0.0004
4258.0 0.00015
4260.0 0.00025
4262.0 0.0
4264.0 0.0004
4266.0 0.0013
4268.0 0.0005
4270.0 0.00035
4272.0 0.0008
4274.0 -0.0001
4276.0 -0.0001
4278.0 0.0003
4280.0 5e-05
4282.0 -0.00025
4284.0 -0.0003
4286.0 -0.0004
4288.0 0.00045
4290.0 0.00045
4292.0 0.0006
4294.0 5e-05
4296.0 -0.00025
4298.0 -0.00015
4300.0 -0.00025
4302.0 -0.00025
4304.0 -0.00035
4306.0 0.00035
4308.0 5e-05
4310.0 -0.00015
4312.0 -0.00035
4314.0 0.00045
4316.0 0.0001
4318.0 -5e-05
4320.0 0.0
4322.0 0.0001
4324.0 0.0005
4326.0 0.0001
4328.0 0.0006
4330.0 0.0006
4332.0 0.0003
4334.0 0.00015
4336.0 -0.0006
4338.0 0.00045
4340.0 -0.0002
4342.0 -0.00045
4344.0 5e-05
4346.0 0.0003
4348.0 0.00025
4350.0 -0.0003
4352.0 -0.00055
4354.0 0.0002
4356.0 0.0002
4358.0 0.00025
4360.0 -0.0004
4362.0 5e-05
4364.0 -0.00015
4366.0 0.00015
4368.0 0.0005
4370.0 0.0003
4372.0 0.0005
4374.0 0.00095
4376.0 -5e-05
4378.0 0.0002
4380.0 0.00055
4382.0 0.0004
4384.0 0.00025
4386.0 0.00025
4388.0 -0.00035
4390.0 0.00025
4392.0 0.0002
4394.0 -5e-05
4396.0 5e-05
4398.0 -0.0004
4400.0 0.00035
4402.0 -0.0005
4404.0 0.00015
4406.0 0.0006
4408.0 0.00035
4410.0 0.0
4412.0 -5e-05
4414.0 5e-05
4416.0 0.00045
4418.0 -0.0003
4420.0 0.0002
4422.0 -5e-05
4424.0 5e-05
4426.0 -0.0002
4428.0 0.0003
4430.0 -0.0003
4432.0 0.0003
4434.0 0.0
4436.0 -0.0003
4438.0 0.0001
4440.0 0.0001
4442.0 0.00015
4444.0 0.0001
4446.0 -0.0003
4448.0 0.0
4450.0 0.0001
4452.0 -0.0002
4454.0 -5e-05
4456.0 -0.0003
4458.0 0.0002
4460.0 0.00025
4462.0 0.0002
4464.0 5e-05
4466.0 -5e-05
4468.0 0.0
4470.0 -5e-05
4472.0 -0.00035
4474.0 0.00045
4476.0 0.0
4478.0 0.0003
4480.0 0.0
4482.0 -5e-05
4484.0 0.00015
4486.0 0.0002
4488.0 -0.0001
4490.0 0.00025
4492.0 -0.00015
4494.0 -0.0003
4496.0 -0.0001
4498.0 0.0001
4500.0 0.0002
