# == Filter Data - Lambda 9 Spectrophotometer ==
# Kitt Peak National Observatory - NOAO
# ------------------------------------------------
# Filter: 1NM/120NMPERMIN/0.5S  300-1200NM  FRS MOSASOLIDU
# Date: 04/26/07   Time: 11:16:38  Operator: HS
# cwl=  3651.81A  fwhm= 588.20A  Tmax= 81.15% at  3880.00A
# Tcutoff=  2.00 %  Slitsize = 10 A
# fwhm spans 3357.71A to 3945.91A
# 90%  spans 3586.73A to 3914.33A
# bw90 is  0.557; Tmin90/Tmax is  0.900
# No data smoothing
# 
# Npts=  901     Disp= 10.00A/Interval
3000.0  -5e-05
3010.0  -5e-05
3020.0  -5e-05
3030.0  -5e-05
3040.0  -5e-05
3050.0  -5e-05
3060.0  0.0
3070.0  0.0001
3080.0  0.00025
3090.0  0.0006
3100.0  0.0012
3110.0  0.0021
3120.0  0.00355
3130.0  0.0058
3140.0  0.0088
3150.0  0.01295
3160.0  0.01845
3170.0  0.02555
3180.0  0.03415
3190.0  0.0444
3200.0  0.0569
3210.0  0.07105
3220.0  0.0872
3230.0  0.1054
3240.0  0.1246
3250.0  0.1457
3260.0  0.1679
3270.0  0.19145
3280.0  0.21555
3290.0  0.23965
3300.0  0.2638
3310.0  0.2883
3320.0  0.31285
3330.0  0.33815
3340.0  0.3627
3350.0  0.3872
3360.0  0.41125
3370.0  0.4346
3380.0  0.45585
3390.0  0.47735
3400.0  0.4965
3410.0  0.5147
3420.0  0.5318
3430.0  0.54895
3440.0  0.565
3450.0  0.58185
3460.0  0.59785
3470.0  0.61275
3480.0  0.6272
3490.0  0.64095
3500.0  0.6527
3510.0  0.66455
3520.0  0.67425
3530.0  0.68365
3540.0  0.69225
3550.0  0.70135
3560.0  0.7093
3570.0  0.7179
3580.0  0.725
3590.0  0.73295
3600.0  0.74045
3610.0  0.7474
3620.0  0.753
3630.0  0.7582
3640.0  0.7627
3650.0  0.76695
3660.0  0.7702
3670.0  0.7735
3680.0  0.7749
3690.0  0.7779
3700.0  0.7803
3710.0  0.78315
3720.0  0.78545
3730.0  0.787
3740.0  0.78785
3750.0  0.7887
3760.0  0.78945
3770.0  0.79005
3780.0  0.79165
3790.0  0.7943
3800.0  0.79555
3810.0  0.7974
3820.0  0.8
3830.0  0.8029
3840.0  0.8054
3850.0  0.8081
3860.0  0.8106
3870.0  0.8114
3880.0  0.8115
3890.0  0.80755
3900.0  0.7923
3910.0  0.75755
3920.0  0.6947
3930.0  0.5975
3940.0  0.4792
3950.0  0.355
3960.0  0.24855
3970.0  0.1672
3980.0  0.11045
3990.0  0.0728
4000.0  0.0484
4010.0  0.0326
4020.0  0.02225
4030.0  0.01545
4040.0  0.0109
4050.0  0.00785
4060.0  0.0057
4070.0  0.0042
4080.0  0.00315
4090.0  0.0024
4100.0  0.0018
4110.0  0.0014
4120.0  0.0011
4130.0  0.00085
4140.0  0.00065
4150.0  0.00055
4160.0  0.00045
4170.0  0.00035
4180.0  0.00025
4190.0  0.0002
4200.0  0.00015
4210.0  0.00015
4220.0  0.0001
4230.0  0.0001
4240.0  0.0001
4250.0  5e-05
4260.0  0.0
4270.0  0.0
4280.0  0.0
4290.0  0.0
4300.0  -5e-05
4310.0  -5e-05
4320.0  -5e-05
4330.0  -5e-05
4340.0  -5e-05
4350.0  -5e-05
4360.0  -5e-05
4370.0  -5e-05
4380.0  -5e-05
4390.0  -5e-05
4400.0  -5e-05
4410.0  -5e-05
4420.0  -5e-05
4430.0  -5e-05
4440.0  -5e-05
4450.0  -5e-05
4460.0  -5e-05
4470.0  -5e-05
4480.0  -5e-05
4490.0  -5e-05
4500.0  -5e-05
4510.0  -5e-05
4520.0  -5e-05
4530.0  -5e-05
4540.0  -5e-05
4550.0  -5e-05
4560.0  -5e-05
4570.0  -5e-05
4580.0  -5e-05
4590.0  -5e-05
4600.0  -5e-05
4610.0  -5e-05
4620.0  -5e-05
4630.0  -5e-05
4640.0  -5e-05
4650.0  -5e-05
4660.0  -5e-05
4670.0  -5e-05
4680.0  -5e-05
4690.0  -5e-05
4700.0  -5e-05
4710.0  -5e-05
4720.0  -5e-05
4730.0  -5e-05
4740.0  -5e-05
4750.0  -5e-05
4760.0  -5e-05
4770.0  -5e-05
4780.0  -5e-05
4790.0  -5e-05
4800.0  -5e-05
4810.0  -5e-05
4820.0  -5e-05
4830.0  -5e-05
4840.0  -5e-05
4850.0  -5e-05
4860.0  -5e-05
4870.0  -5e-05
4880.0  -5e-05
4890.0  -5e-05
4900.0  -5e-05
4910.0  -5e-05
4920.0  -5e-05
4930.0  -5e-05
4940.0  -5e-05
4950.0  -5e-05
4960.0  -5e-05
4970.0  -5e-05
4980.0  -5e-05
4990.0  -5e-05
5000.0  -5e-05
5010.0  -5e-05
5020.0  -5e-05
5030.0  -5e-05
5040.0  -5e-05
5050.0  -5e-05
5060.0  -5e-05
5070.0  -5e-05
5080.0  -5e-05
5090.0  -5e-05
5100.0  -5e-05
5110.0  -5e-05
5120.0  -5e-05
5130.0  -5e-05
5140.0  -5e-05
5150.0  -5e-05
5160.0  -5e-05
5170.0  -5e-05
5180.0  -5e-05
5190.0  -5e-05
5200.0  -5e-05
5210.0  -5e-05
5220.0  -5e-05
5230.0  -5e-05
5240.0  -5e-05
5250.0  -5e-05
5260.0  -5e-05
5270.0  -5e-05
5280.0  -5e-05
5290.0  -5e-05
5300.0  -5e-05
5310.0  -5e-05
5320.0  -5e-05
5330.0  -5e-05
5340.0  -5e-05
5350.0  -5e-05
5360.0  -5e-05
5370.0  -5e-05
5380.0  -5e-05
5390.0  -5e-05
5400.0  -5e-05
5410.0  -5e-05
5420.0  -5e-05
5430.0  -5e-05
5440.0  -5e-05
5450.0  -5e-05
5460.0  -5e-05
5470.0  -5e-05
5480.0  -5e-05
5490.0  -5e-05
5500.0  -5e-05
5510.0  -5e-05
5520.0  -5e-05
5530.0  -5e-05
5540.0  -5e-05
5550.0  -5e-05
5560.0  -5e-05
5570.0  -5e-05
5580.0  -5e-05
5590.0  -5e-05
5600.0  -5e-05
5610.0  -5e-05
5620.0  -0.0002
5630.0  -5e-05
5640.0  -5e-05
5650.0  -5e-05
5660.0  -5e-05
5670.0  -5e-05
5680.0  -5e-05
5690.0  -5e-05
5700.0  -5e-05
5710.0  -5e-05
5720.0  -5e-05
5730.0  -5e-05
5740.0  -5e-05
5750.0  -5e-05
5760.0  -5e-05
5770.0  -5e-05
5780.0  -5e-05
5790.0  -5e-05
5800.0  -5e-05
5810.0  -5e-05
5820.0  -5e-05
5830.0  -5e-05
5840.0  -5e-05
5850.0  -5e-05
5860.0  -5e-05
5870.0  -5e-05
5880.0  -5e-05
5890.0  -5e-05
5900.0  -5e-05
5910.0  -5e-05
5920.0  -5e-05
5930.0  -5e-05
5940.0  -5e-05
5950.0  -5e-05
5960.0  -5e-05
5970.0  -5e-05
5980.0  -5e-05
5990.0  -5e-05
6000.0  -5e-05
6010.0  -5e-05
6020.0  -5e-05
6030.0  -5e-05
6040.0  -5e-05
6050.0  -5e-05
6060.0  -5e-05
6070.0  -5e-05
6080.0  -5e-05
6090.0  -5e-05
6100.0  -5e-05
6110.0  -5e-05
6120.0  -5e-05
6130.0  -5e-05
6140.0  -5e-05
6150.0  -5e-05
6160.0  -5e-05
6170.0  -5e-05
6180.0  -5e-05
6190.0  -5e-05
6200.0  -5e-05
6210.0  -5e-05
6220.0  -5e-05
6230.0  -5e-05
6240.0  -5e-05
6250.0  -5e-05
6260.0  -5e-05
6270.0  -5e-05
6280.0  -5e-05
6290.0  -5e-05
6300.0  -5e-05
6310.0  -5e-05
6320.0  -5e-05
6330.0  -5e-05
6340.0  -5e-05
6350.0  -5e-05
6360.0  -5e-05
6370.0  -5e-05
6380.0  -5e-05
6390.0  -5e-05
6400.0  -5e-05
6410.0  -5e-05
6420.0  -5e-05
6430.0  -5e-05
6440.0  -5e-05
6450.0  -5e-05
6460.0  -5e-05
6470.0  -5e-05
6480.0  -5e-05
6490.0  -5e-05
6500.0  -5e-05
6510.0  -5e-05
6520.0  -5e-05
6530.0  -5e-05
6540.0  -5e-05
6550.0  -5e-05
6560.0  -5e-05
6570.0  -5e-05
6580.0  -5e-05
6590.0  -5e-05
6600.0  -5e-05
6610.0  -5e-05
6620.0  -5e-05
6630.0  -5e-05
6640.0  -5e-05
6650.0  -5e-05
6660.0  -5e-05
6670.0  -5e-05
6680.0  -5e-05
6690.0  -5e-05
6700.0  -5e-05
6710.0  -5e-05
6720.0  -5e-05
6730.0  -5e-05
6740.0  -5e-05
6750.0  -5e-05
6760.0  -5e-05
6770.0  -5e-05
6780.0  -5e-05
6790.0  -5e-05
6800.0  -5e-05
6810.0  -5e-05
6820.0  -5e-05
6830.0  -5e-05
6840.0  -5e-05
6850.0  0.0
6860.0  0.0
6870.0  0.0
6880.0  5e-05
6890.0  0.0
6900.0  -0.0005
6910.0  0.0001
6920.0  0.00015
6930.0  0.0002
6940.0  0.0003
6950.0  0.00035
6960.0  0.0004
6970.0  0.00045
6980.0  0.00055
6990.0  0.00065
7000.0  0.0007
7010.0  0.00075
7020.0  0.00085
7030.0  0.00085
7040.0  0.00095
7050.0  0.001
7060.0  0.00105
7070.0  0.00105
7080.0  0.0011
7090.0  0.00115
7100.0  0.00115
7110.0  0.0012
7120.0  0.00115
7130.0  0.0012
7140.0  0.0012
7150.0  0.0012
7160.0  0.0012
7170.0  0.00115
7180.0  0.00115
7190.0  0.0011
7200.0  0.0011
7210.0  0.0011
7220.0  0.001
7230.0  0.001
7240.0  0.00095
7250.0  0.0009
7260.0  0.00085
7270.0  0.00085
7280.0  0.0008
7290.0  0.00075
7300.0  0.00075
7310.0  0.0007
7320.0  0.00065
7330.0  0.0006
7340.0  0.0006
7350.0  0.00055
7360.0  0.0005
7370.0  0.00045
7380.0  0.00045
7390.0  0.0004
7400.0  0.0004
7410.0  0.00035
7420.0  0.0003
7430.0  0.0003
7440.0  0.00025
7450.0  0.00025
7460.0  0.00025
7470.0  0.0002
7480.0  0.0002
7490.0  0.0002
7500.0  0.00015
7510.0  0.00015
7520.0  0.00015
7530.0  0.0001
7540.0  0.0001
7550.0  0.0001
7560.0  0.0001
7570.0  0.0001
7580.0  0.0001
7590.0  5e-05
7600.0  5e-05
7610.0  5e-05
7620.0  5e-05
7630.0  5e-05
7640.0  5e-05
7650.0  5e-05
7660.0  0.0
7670.0  0.0
7680.0  5e-05
7690.0  0.0
7700.0  0.0
7710.0  0.0
7720.0  0.0
7730.0  0.0
7740.0  0.0
7750.0  0.0
7760.0  0.0
7770.0  0.0
7780.0  0.0
7790.0  0.0
7800.0  0.0
7810.0  0.0
7820.0  0.0
7830.0  0.0
7840.0  0.0
7850.0  0.0
7860.0  0.0
7870.0  0.0
7880.0  0.0
7890.0  0.0
7900.0  0.0
7910.0  0.0
7920.0  0.0
7930.0  0.0
7940.0  0.0
7950.0  0.0
7960.0  0.0
7970.0  -5e-05
7980.0  0.0
7990.0  0.0
8000.0  0.0
8010.0  -5e-05
8020.0  0.0
8030.0  0.0
8040.0  0.0
8050.0  0.0
8060.0  0.0
8070.0  -5e-05
8080.0  -5e-05
8090.0  -5e-05
8100.0  -0.0003
8110.0  -5e-05
8120.0  0.0
8130.0  0.0
8140.0  0.0
8150.0  0.0
8160.0  0.0
8170.0  0.0
8180.0  -5e-05
8190.0  0.0
8200.0  0.0
8210.0  0.0
8220.0  0.0
8230.0  0.0
8240.0  0.0
8250.0  0.0
8260.0  0.0
8270.0  0.0
8280.0  0.0
8290.0  0.0
8300.0  -5e-05
8310.0  -5e-05
8320.0  0.0
8330.0  0.0
8340.0  0.0
8350.0  0.0
8360.0  0.0
8370.0  0.0
8380.0  -5e-05
8390.0  0.0
8400.0  0.0
8410.0  0.0
8420.0  0.0
8430.0  0.0
8440.0  0.0
8450.0  5e-05
8460.0  0.0
8470.0  0.0
8480.0  0.0
8490.0  5e-05
8500.0  0.0
8510.0  5e-05
8520.0  5e-05
8530.0  -5e-05
8540.0  0.0
8550.0  0.0
8560.0  -5e-05
8570.0  5e-05
8580.0  5e-05
8590.0  5e-05
8600.0  5e-05
8610.0  0.0004
8620.0  0.0006
8630.0  0.0005
8640.0  -0.0004
8650.0  0.0007
8660.0  0.00075
8670.0  0.0002
8680.0  0.0004
8690.0  0.0005
8700.0  0.0001
8710.0  0.00075
8720.0  -0.00015
8730.0  0.0006
8740.0  0.00055
8750.0  0.00015
8760.0  5e-05
8770.0  5e-05
8780.0  0.00025
8790.0  0.00035
8800.0  0.00065
8810.0  0.0004
8820.0  0.00065
8830.0  -0.00015
8840.0  0.0008
8850.0  0.0006
8860.0  0.0003
8870.0  0.00065
8880.0  0.0002
8890.0  0.0004
8900.0  0.0002
8910.0  0.0006
8920.0  0.00045
8930.0  0.0008
8940.0  0.0005
8950.0  0.0005
8960.0  0.00065
8970.0  0.00085
8980.0  0.00085
8990.0  0.00055
9000.0  -0.0001
9010.0  0.00035
9020.0  0.0003
9030.0  0.00045
9040.0  0.0008
9050.0  0.0015
9060.0  0.0006
9070.0  0.0009
9080.0  0.0005
9090.0  0.00035
9100.0  0.0006
9110.0  0.0005
9120.0  -0.00045
9130.0  0.00035
9140.0  0.0011
9150.0  0.0005
9160.0  0.0005
9170.0  0.0002
9180.0  0.0006
9190.0  0.00045
9200.0  0.00025
9210.0  0.00045
9220.0  0.0004
9230.0  0.00085
9240.0  0.0
9250.0  0.0004
9260.0  0.00035
9270.0  0.00035
9280.0  0.0002
9290.0  0.00035
9300.0  0.0007
9310.0  0.0003
9320.0  0.0007
9330.0  0.0002
9340.0  0.0007
9350.0  0.0007
9360.0  0.0014
9370.0  0.00035
9380.0  0.0006
9390.0  0.0005
9400.0  0.0002
9410.0  -5e-05
9420.0  0.00075
9430.0  0.0005
9440.0  0.00055
9450.0  0.0008
9460.0  0.0002
9470.0  0.00065
9480.0  0.00015
9490.0  0.0007
9500.0  0.0006
9510.0  0.0004
9520.0  0.0004
9530.0  -0.0003
9540.0  0.0005
9550.0  0.00025
9560.0  0.00085
9570.0  -0.0001
9580.0  0.0001
9590.0  0.0006
9600.0  0.00065
9610.0  0.00035
9620.0  0.00065
9630.0  0.00095
9640.0  0.0004
9650.0  0.00015
9660.0  0.00075
9670.0  0.0007
9680.0  0.00035
9690.0  -0.00015
9700.0  0.00065
9710.0  0.00035
9720.0  0.00105
9730.0  0.0008
9740.0  0.00085
9750.0  -0.00015
9760.0  0.00065
9770.0  0.0008
9780.0  0.00015
9790.0  0.0002
9800.0  0.0004
9810.0  0.0005
9820.0  0.00045
9830.0  0.00065
9840.0  0.0008
9850.0  0.0006
9860.0  5e-05
9870.0  0.00045
9880.0  0.0004
9890.0  0.0001
9900.0  5e-05
9910.0  0.0005
9920.0  0.00075
9930.0  0.0003
9940.0  0.0005
9950.0  0.00025
9960.0  0.00045
9970.0  0.00075
9980.0  0.0005
9990.0  0.00065
10000.0 -5e-05
10010.0 0.0002
10020.0 0.0002
10030.0 0.00035
10040.0 0.0003
10050.0 0.00055
10060.0 0.0006
10070.0 0.0005
10080.0 0.0004
10090.0 0.001
10100.0 0.00035
10110.0 0.0003
10120.0 0.00035
10130.0 0.00075
10140.0 0.0001
10150.0 0.00015
10160.0 0.00105
10170.0 0.0007
10180.0 0.0001
10190.0 -0.0001
10200.0 0.001
10210.0 0.0004
10220.0 0.00035
10230.0 0.00045
10240.0 -0.00025
10250.0 0.00045
10260.0 0.00045
10270.0 0.0008
10280.0 0.0003
10290.0 -0.0002
10300.0 5e-05
10310.0 0.00055
10320.0 0.0009
10330.0 0.00035
10340.0 0.00035
10350.0 0.00055
10360.0 -0.0001
10370.0 0.00045
10380.0 0.0009
10390.0 0.00065
10400.0 -0.0003
10410.0 0.0002
10420.0 -0.00015
10430.0 0.00095
10440.0 5e-05
10450.0 0.00075
10460.0 0.00035
10470.0 0.0005
10480.0 0.00065
10490.0 0.0008
10500.0 0.0002
10510.0 0.00045
10520.0 0.00015
10530.0 -0.0001
10540.0 0.0
10550.0 -0.0001
10560.0 0.00085
10570.0 0.0001
10580.0 0.00065
10590.0 0.0009
10600.0 0.00025
10610.0 -0.00045
10620.0 0.0005
10630.0 -5e-05
10640.0 0.0002
10650.0 0.00085
10660.0 -0.0003
10670.0 0.00025
10680.0 -5e-05
10690.0 0.0003
10700.0 0.00045
10710.0 0.0005
10720.0 0.00025
10730.0 0.0009
10740.0 0.0008
10750.0 0.00095
10760.0 0.00055
10770.0 0.0
10780.0 0.00065
10790.0 0.00045
10800.0 0.0009
10810.0 0.0006
10820.0 0.00035
10830.0 0.00035
10840.0 0.0004
10850.0 0.0003
10860.0 0.00055
10870.0 0.00055
10880.0 0.00025
10890.0 0.0006
10900.0 0.0006
10910.0 5e-05
10920.0 0.00055
10930.0 0.0006
10940.0 0.00015
10950.0 0.0003
10960.0 0.00035
10970.0 0.00055
10980.0 0.0004
10990.0 0.00045
11000.0 0.0005
11010.0 0.0005
11020.0 -0.00015
11030.0 -5e-05
11040.0 0.00105
11050.0 0.00055
11060.0 0.0008
11070.0 0.00055
11080.0 -0.0001
11090.0 0.00025
11100.0 0.00035
11110.0 0.00095
11120.0 0.00055
11130.0 0.0008
11140.0 0.0006
11150.0 -0.00015
11160.0 -0.0003
11170.0 0.0006
11180.0 0.00095
11190.0 0.0002
11200.0 0.0008
11210.0 0.00055
11220.0 0.00045
11230.0 -0.0001
11240.0 0.0
11250.0 0.00055
11260.0 0.001
11270.0 0.0005
11280.0 -5e-05
11290.0 0.0003
11300.0 0.00085
11310.0 0.00095
11320.0 0.0011
11330.0 0.00075
11340.0 0.001
11350.0 0.00025
11360.0 -0.0003
11370.0 -0.00085
11380.0 -0.00025
11390.0 0.00135
11400.0 0.00015
11410.0 0.0001
11420.0 0.00055
11430.0 0.0005
11440.0 0.0006
11450.0 0.0004
11460.0 0.00035
11470.0 0.00015
11480.0 0.00105
11490.0 0.00075
11500.0 0.00055
11510.0 0.0009
11520.0 0.00075
11530.0 0.0009
11540.0 0.00125
11550.0 0.0006
11560.0 0.00095
11570.0 0.0004
11580.0 0.00035
11590.0 -0.00035
11600.0 -0.00055
11610.0 -0.0006
11620.0 -0.0007
11630.0 0.0
11640.0 0.00015
11650.0 5e-05
11660.0 0.0003
11670.0 0.0003
11680.0 0.00075
11690.0 0.0004
11700.0 0.001
11710.0 0.00045
11720.0 0.00065
11730.0 0.0007
11740.0 0.00075
11750.0 0.00085
11760.0 5e-05
11770.0 0.00095
11780.0 0.001
11790.0 0.00055
11800.0 0.0004
11810.0 -0.0004
11820.0 0.0003
11830.0 5e-05
11840.0 0.0004
11850.0 0.00065
11860.0 0.0003
11870.0 -0.0001
11880.0 -0.0005
11890.0 -0.00145
11900.0 -0.0015
11910.0 0.00075
11920.0 0.00065
11930.0 0.0005
11940.0 0.001
11950.0 0.00065
11960.0 0.00105
11970.0 0.0008
11980.0 0.0007
11990.0 0.00125
12000.0 0.00055
