# http://www.eso.org/sci/facilities/paranal/instruments/fors/inst/Filters/curves.html
# Wavelength in Angtroms, filter transmission (no atomsphere, optical or ccd efficiency included)
3400.0  0.012331313
3500.0  0.0031751952
3600.0  0.046572932
3700.0  0.19618513
3800.0  0.36811942
3900.0  0.5827836
4000.0  0.620794
4100.0  0.66600109
4200.0  0.68712199
4300.0  0.67617283
4400.0  0.6189339
4500.0  0.61986717
4600.0  0.54592211
4700.0  0.36373155
4800.0  0.2060873
4900.0  0.086289628
5000.0  0.038660605
5100.0  0.011195027
5200.0  0.0020500971
5300.0  0.00022604006
5400.0  0.00013540021
5500.0  0.00022209896
5600.0  0.00048806894
5700.0  0.00030331
5800.0  2.8667268e-05
5900.0  1.2060488e-06
6000.0  6.6411499e-06
6100.0  2.4164677e-05
6200.0  6.7201995e-05
6300.0  5.6621544e-05
6400.0  2.3653108e-05
6500.0  4.6223098e-05
6600.0  7.8477891e-07
6700.0  6.6681695e-07
6800.0  4.6503109e-05
6900.0  9.943602e-05
7000.0  0.00035541566
7100.0  0.00024775388
7200.0  2.4813285e-05
7300.0  8.4638211e-05
7400.0  8.3241022e-05
7500.0  8.835312e-05
7600.0  2.309236e-05
7700.0  1.1576087e-07
7800.0  5.1105295e-06
7900.0  9.9371023e-07
8000.0  4.9833865e-05
8100.0  3.1578998e-05
8200.0  4.3558465e-05
8300.0  2.3189213e-05
8400.0  7.7517539e-05
8500.0  2.2903372e-05
8600.0  6.9808573e-07
8700.0  3.4942686e-08
8800.0  1.0071247e-05
8900.0  4.1295668e-06
9000.0  2.4082465e-05
9100.0  2.5671436e-05
9200.0  1.2573969e-05
9300.0  5.9476643e-06
9400.0  7.7431396e-05
9500.0  3.590545e-05
9600.0  3.2013597e-05
9700.0  1.7551033e-06
9800.0  2.0342049e-05
9900.0  6.0733099e-06
10000.0 5.6146766e-06
10100.0 4.0878836e-05
10200.0 5.5932968e-05
10300.0 2.9911497e-05
10400.0 2.9160904e-07
10500.0 9.1055948e-07
10600.0 6.5889071e-05
10700.0 7.7732013e-05
10800.0 7.8683794e-05
10900.0 0.00026085875
11000.0 8.9144312e-05
11100.0 0.0008265776
11200.0 0.00033600377
11300.0 2.6805765e-06
11400.0 0.00013353715
11500.0 4.4959536e-05
11600.0 0.0043919652
11700.0 0.0069420432
11800.0 7.9576652e-06
11900.0 0.0010687655
12000.0 0.065956146
