# http://www.eso.org/sci/facilities/paranal/instruments/fors/inst/Filters/curves.html
# Wavelength in Angtroms, filter transmission (no atomsphere, optical or ccd efficiency included)
3400.0  0.014772793
3500.0  0.014202596
3600.0  0.00273263
3700.0  0.0012194701
3800.0  0.00086153521
3900.0  0.002884636
4000.0  0.00086833067
4100.0  1.1384497e-05
4200.0  0.00026890225
4300.0  0.0003146447
4400.0  0.00039771246
4500.0  6.2937894e-05
4600.0  4.107874e-05
4700.0  0.00019389267
4800.0  0.024689768
4900.0  0.3502259
5000.0  0.64512898
5100.0  0.80892434
5200.0  0.87114407
5300.0  0.88868424
5400.0  0.88481729
5500.0  0.86219228
5600.0  0.82209556
5700.0  0.76557472
5800.0  0.68987078
5900.0  0.54888602
6000.0  0.48988421
6100.0  0.38366728
6200.0  0.28791397
6300.0  0.20163425
6400.0  0.13236147
6500.0  0.080912542
6600.0  0.045447349
6700.0  0.025816403
6800.0  0.012696118
6900.0  0.0057778803
7000.0  0.0022389174
7100.0  0.0010143157
7200.0  0.00034963015
7300.0  0.00011749045
7400.0  6.2018345e-05
7500.0  3.3785841e-05
7600.0  6.369125e-05
7700.0  1.8704519e-05
7800.0  3.8912661e-08
7900.0  8.3982316e-06
8000.0  1.7008723e-05
8100.0  3.0189366e-05
8200.0  1.6430956e-08
8300.0  1.7561251e-05
8400.0  9.3903022e-05
8500.0  1.4077116e-05
8600.0  5.5921921e-06
8700.0  4.0757149e-05
8800.0  4.5992241e-05
8900.0  2.3204513e-05
9000.0  9.9066874e-06
9100.0  2.9084138e-05
9200.0  1.4981649e-05
9300.0  3.6620813e-05
9400.0  4.2948556e-05
9500.0  5.1221052e-06
9600.0  1.5036878e-06
9700.0  1.6177654e-05
9800.0  2.1877219e-06
9900.0  1.207726e-05
10000.0 1.4198033e-05
10100.0 1.9911645e-05
10200.0 3.4271895e-05
10300.0 4.5398504e-06
10400.0 4.5997489e-05
10500.0 1e-05
10600.0 5.1256071e-05
10700.0 9.4361166e-05
10800.0 8.4150338e-05
10900.0 1.334679e-06
11000.0 7.459775e-08
11100.0 1.9564555e-05
11200.0 0.00016687294
11300.0 0.00016937273
11400.0 0.00093446723
11500.0 0.00047366461
11600.0 0.0007990673
11700.0 0.00035823871
11800.0 0.00059682489
11900.0 0.048823529
12000.0 0.15977985
