# http://www.eso.org/sci/facilities/paranal/instruments/fors/inst/Filters/curves.html
# Wavelength in Angtroms, filter transmission (no atomsphere, optical or ccd efficiency included)
3400.0  0.0048602697
3500.0  0.0065227734
3600.0  2.6835792e-05
3700.0  0.003690369
3800.0  0.00062736194
3900.0  2.5423113e-05
4000.0  0.0025640352
4100.0  0.00066175605
4200.0  0.00026324014
4300.0  0.00067297684
4400.0  0.00016888505
4500.0  4.899813e-05
4600.0  0.00034391721
4700.0  7.0880173e-07
4800.0  2.2958945e-05
4900.0  0.00010519435
5000.0  1.5128504e-05
5100.0  3.523181e-05
5200.0  6.4693438e-05
5300.0  8.7031985e-06
5400.0  6.558007e-08
5500.0  1.0489408e-05
5600.0  6.1555709e-05
5700.0  2.8587656e-05
5800.0  3.2558503e-05
5900.0  5.760658e-09
6000.0  8.0301416e-06
6100.0  1.7434635e-07
6200.0  6.5375727e-05
6300.0  2.8392468e-05
6400.0  3.9882824e-05
6500.0  2.4255844e-05
6600.0  5.6389609e-05
6700.0  1.5389461e-05
6800.0  1.8198221e-07
6900.0  0.00024521158
7000.0  0.020844322
7100.0  0.17775609
7200.0  0.41236839
7300.0  0.61422456
7400.0  0.81544214
7500.0  0.97286407
7600.0  0.94006653
7700.0  0.92467993
7800.0  0.94579028
7900.0  0.96142917
8000.0  0.97489692
8100.0  0.94936961
8200.0  0.95158193
8300.0  0.94380484
8400.0  0.94153731
8500.0  0.91999664
8600.0  0.92429318
8700.0  0.46129955
8800.0  0.09507173
8900.0  0.013180399
9000.0  0.0034276233
9100.0  0.0012349827
9200.0  0.00052555718
9300.0  0.0001504474
9400.0  0.0001180756
9500.0  5.8156828e-05
9600.0  7.4508507e-05
9700.0  5.6268686e-05
9800.0  2.0562206e-06
9900.0  4.6092683e-05
10000.0 4.3177385e-05
10100.0 8.1429677e-05
10200.0 3.1704403e-05
10300.0 3.6625636e-05
10400.0 4.0172757e-05
10500.0 3.8724878e-05
10600.0 2.3850627e-05
10700.0 4.9709794e-07
10800.0 6.8004317e-05
10900.0 1.3751314e-05
11000.0 1.6347811e-05
11100.0 0.00039833504
11200.0 0.00056900197
11300.0 1.4945376e-05
11400.0 2.3275891e-05
11500.0 0.00016627204
11600.0 0.00021643885
11700.0 0.0044480361
11800.0 0.0032285532
11900.0 0.05171883
12000.0 0.0517276
