# K filter curve @ T=90K 
#
# Filter transmission only (no sky extinction or telecope optics)
#
# Wavelength (Ang)       Transmission
18806.480 0.000
18826.360 0.000
18846.240 0.000
18866.120 0.000
18886.000 0.000
18905.880 0.000
18925.760 0.000
18945.640 0.000
18965.520 0.000
18985.400 0.000
19005.280 0.000
19025.160 0.000
19045.040 0.000
19064.920 0.001
19084.800 0.001
19104.680 0.001
19124.560 0.001
19144.440 0.001
19164.320 0.002
19184.200 0.002
19204.080 0.003
19223.960 0.003
19243.840 0.004
19263.720 0.005
19283.600 0.005
19303.480 0.006
19323.360 0.007
19343.240 0.007
19363.120 0.008
19383.000 0.009
19402.880 0.010
19422.760 0.011
19442.640 0.013
19462.520 0.015
19482.400 0.017
19502.280 0.020
19522.160 0.023
19542.040 0.028
19561.920 0.034
19581.800 0.041
19601.680 0.050
19621.560 0.061
19641.440 0.076
19661.320 0.096
19681.200 0.120
19701.080 0.151
19720.960 0.189
19740.840 0.233
19760.720 0.284
19780.600 0.336
19800.480 0.387
19820.360 0.436
19840.240 0.481
19860.120 0.515
19880.000 0.544
19899.880 0.568
19919.760 0.588
19939.640 0.605
19959.520 0.622
19979.400 0.639
19999.280 0.656
20019.160 0.673
20039.040 0.690
20058.920 0.706
20078.800 0.722
20098.680 0.735
20118.560 0.748
20138.440 0.757
20158.320 0.765
20178.200 0.770
20198.080 0.773
20217.960 0.774
20237.840 0.775
20257.720 0.774
20277.600 0.773
20297.480 0.771
20317.360 0.771
20337.240 0.770
20357.120 0.770
20377.000 0.771
20396.880 0.772
20416.760 0.774
20436.640 0.777
20456.520 0.780
20476.400 0.783
20496.280 0.787
20516.160 0.790
20536.040 0.794
20555.920 0.797
20575.800 0.800
20595.680 0.802
20615.560 0.803
20635.440 0.805
20655.320 0.806
20675.200 0.806
20695.080 0.806
20714.960 0.806
20734.840 0.806
20754.720 0.805
20774.600 0.805
20794.480 0.804
20814.360 0.804
20834.240 0.804
20854.120 0.804
20874.000 0.805
20893.880 0.806
20913.760 0.807
20933.640 0.808
20953.520 0.810
20973.400 0.812
20993.280 0.814
21013.160 0.815
21033.040 0.817
21052.920 0.819
21072.800 0.821
21092.680 0.822
21112.560 0.824
21132.440 0.825
21152.320 0.825
21172.200 0.826
21192.080 0.826
21211.960 0.826
21231.840 0.826
21251.720 0.825
21271.600 0.824
21291.480 0.823
21311.360 0.822
21331.240 0.822
21351.120 0.820
21371.000 0.819
21390.880 0.818
21410.760 0.818
21430.640 0.817
21450.520 0.816
21470.400 0.816
21490.280 0.816
21510.160 0.816
21530.040 0.816
21549.920 0.816
21569.800 0.817
21589.680 0.818
21609.560 0.818
21629.440 0.820
21649.320 0.821
21669.200 0.822
21689.080 0.823
21708.960 0.825
21728.840 0.827
21748.720 0.828
21768.600 0.829
21788.480 0.830
21808.360 0.831
21828.240 0.832
21848.120 0.833
21868.000 0.834
21887.880 0.834
21907.760 0.835
21927.640 0.836
21947.520 0.836
21967.400 0.837
21987.280 0.837
22007.160 0.838
22027.040 0.839
22046.920 0.839
22066.800 0.840
22086.680 0.841
22106.560 0.841
22126.440 0.842
22146.320 0.842
22166.200 0.842
22186.080 0.843
22205.960 0.843
22225.840 0.844
22245.720 0.844
22265.600 0.845
22285.480 0.845
22305.360 0.846
22325.240 0.846
22345.120 0.847
22365.000 0.847
22384.880 0.848
22404.760 0.848
22424.640 0.849
22444.520 0.849
22464.400 0.849
22484.280 0.850
22504.160 0.850
22524.040 0.850
22543.920 0.850
22563.800 0.850
22583.680 0.849
22603.560 0.849
22623.440 0.849
22643.320 0.848
22663.200 0.847
22683.080 0.846
22702.960 0.844
22722.840 0.843
22742.720 0.840
22762.600 0.837
22782.480 0.832
22802.360 0.825
22822.240 0.817
22842.120 0.805
22862.000 0.791
22881.880 0.773
22901.760 0.750
22921.640 0.724
22941.520 0.693
22961.400 0.655
22981.280 0.614
23001.160 0.571
23021.040 0.526
23040.920 0.480
23060.800 0.435
23080.680 0.390
23100.560 0.347
23120.440 0.306
23140.320 0.269
23160.200 0.236
23180.080 0.206
23199.960 0.181
23219.840 0.158
23239.720 0.138
23259.600 0.121
23279.480 0.106
23299.360 0.093
23319.240 0.081
23339.120 0.071
23359.000 0.063
23378.880 0.055
23398.760 0.048
23418.640 0.043
23438.520 0.038
23458.400 0.034
23478.280 0.030
23498.160 0.027
23518.040 0.024
23537.920 0.022
23557.800 0.019
23577.680 0.017
23597.560 0.016
23617.440 0.014
23637.320 0.013
23657.200 0.012
23677.080 0.011
23696.960 0.010
23716.840 0.009
23736.720 0.008
23756.600 0.007
23776.480 0.007
23796.360 0.006
23816.240 0.006
23836.120 0.005
23856.000 0.005
23875.880 0.004
23895.760 0.004
23915.640 0.004
23935.520 0.003
23955.400 0.003
23975.280 0.003
23995.160 0.003
24015.040 0.002
24034.920 0.002
24054.800 0.002
24074.680 0.002
24094.560 0.002
24114.440 0.002
24134.320 0.001
24154.200 0.001
24174.080 0.001
24193.960 0.001
24213.840 0.001
24233.720 0.001
24253.600 0.001
24273.480 0.001
24293.360 0.001
24313.240 0.001
24333.120 0.001
24353.000 0.001
24372.880 0.001
24392.760 0.001
24412.640 0.000
24432.520 0.000
24452.400 0.000
